	Longueur d'onde (nm)	Intensité	Numéro	Intensité normalisée	Intensité normalisée.1
0	201.048	2700	2741	0.003375	
1	202.50400000000002	790	2775	0.0009875	
2	202.76391	17000	2084	0.02125	
3	202.8412	17000	2085	0.02125	
4	202.9376	19000	2003	0.02375	
5	203.22801	47000	1435	0.05875	
6	203.40599999999998	67000	1200	0.08375	
7	203.4082	82000	1111	0.1025	
8	203.53201	85000	1093	0.10625	
9	203.88756	150000	795	0.1875	
10	204.1	62000	1248	0.0775	
11	207.21599999999998	1100	2772	0.001375	
12	207.7	17000	2086	0.02125	
13	208.24532	58000	1285	0.0725	
14	208.25466	81000	1116	0.10125	
15	208.59099999999998	170000	737	0.2125	
16	208.6309	43000	1492	0.05375	
17	208.99400000000003	100000	989	0.125	
18	209.06498	300000	514	0.375	
19	209.12935	180000	709	0.225	
20	209.2309	240000	608	0.3	
21	209.24587	6100000	49	7.625	
22	209.415	100000	990	0.125	
23	209.73223	45000	1463	0.05625	
24	209.85	300000	515	0.375	
25	210.04883999999998	57000	1304	0.07125	
26	210.07348	37000	1577	0.04625	
27	210.22299999999998	4000	2702	0.005	
28	210.304	2100	2755	0.002625	
29	212.415	4300	2694	0.005375	
30	212.674	1600	2763	0.002	
31	212.717	1600	2764	0.002	
32	213.291	2700	2742	0.003375	
33	214.66234	19000	2004	0.02375	
34	215.81099999999998	32000	1679	0.04	
35	217.07445	300000	516	0.375	
36	217.2753	34000	1634	0.0425	
37	217.3151	300000	517	0.375	
38	217.70037000000002	430000	402	0.5375	
39	217.7241	40000	1537	0.05	
40	218.19771	42000	1498	0.0525	
41	218.22222000000002	510000	338	0.6375	
42	218.453	3400	2716	0.00425	
43	218.7388	22000	1902	0.0275	
44	218.7941	26000	1806	0.0325	
45	218.80599999999998	690	2776	0.0008625	
46	218.968	690	2777	0.0008625	
47	218.9946	20000	1968	0.025	
48	219.10994	37000	1578	0.04625	
49	219.1209	11000	2361	0.01375	
50	219.165	5200	2662	0.0065	
51	219.3477	8700	2495	0.010875	
52	219.382	8700	2496	0.010875	
53	219.46602000000001	20000	1969	0.025	
54	219.6296	11000	2362	0.01375	
55	219.64088999999998	69000	1187	0.08625	
56	219.65599999999998	1500	2766	0.001875	
57	220.0182	32000	1680	0.04	
58	220.27271000000002	84000	1099	0.105	
59	220.36599999999999	7200	2581	0.009	
60	220.49364	24000	1852	0.03	
61	220.798	5100	2668	0.006375	
62	221.1354	6400	2620	0.008	
63	221.36900000000003	19000	2005	0.02375	
64	221.605	5700	2643	0.007125	
65	221.625	7600	2561	0.0095	
66	221.8253	78000	1126	0.0975	
67	221.965	5700	2644	0.007125	
68	222.045	5800	2640	0.00725	
69	222.28418	48000	1417	0.06	
70	222.30216000000001	100000	991	0.125	
71	222.5036	17000	2087	0.02125	
72	222.54307000000003	67000	1201	0.08375	
73	222.579	19000	2006	0.02375	
74	222.74	5900	2633	0.007375	
75	222.8847	29000	1741	0.03625	
76	222.97402000000002	110000	949	0.1375	
77	223.037	52000	1356	0.065	
78	223.1419	66000	1210	0.0825	
79	223.2258	19000	2007	0.02375	
80	223.4687	19000	2008	0.02375	
81	223.72322000000003	92000	1059	0.115	
82	224.03	4000	2703	0.005	
83	224.1215	8200	2525	0.01025	
84	224.18517999999997	120000	909	0.15	
85	224.326	12000	2323	0.015	
86	224.57598	33000	1656	0.04125	
87	224.62	2100	2756	0.002625	
88	224.7527	12000	2324	0.015	
89	225.06812999999997	36000	1596	0.045	
90	225.268	11000	2363	0.01375	
91	225.69679	70000	1178	0.0875	
92	226.317	2200	2753	0.00275	
93	226.43987	52000	1357	0.065	
94	227.205	9200	2469	0.0115	
95	227.548	6400	2621	0.008	
96	227.666	6800	2604	0.0085	
97	227.6888	14000	2230	0.0175	
98	227.915	9300	2465	0.011625	
99	228.33835	9700	2443	0.012125	
100	228.449	30000	1716	0.0375	
101	228.498	7100	2587	0.008875	
102	228.658	19000	2009	0.02375	
103	229.02599999999998	4500	2683	0.005625	
104	229.1527	15000	2179	0.01875	
105	229.324	4800	2675	0.006	
106	229.541	9700	2444	0.012125	
107	229.954	7400	2572	0.00925	
108	230.253	10000	2407	0.0125	
109	230.287	2500	2745	0.003125	
110	230.766	2500	2746	0.003125	
111	230.8274	15000	2180	0.01875	
112	231.0167	23000	1877	0.02875	
113	231.14534	34000	1635	0.0425	
114	231.23959	19000	2010	0.02375	
115	231.56204	52000	1358	0.065	
116	232.01432999999997	59000	1276	0.07375	
117	232.107	13000	2275	0.01625	
118	232.2082	15000	2181	0.01875	
119	232.419	25000	1827	0.03125	
120	232.43311	22000	1903	0.0275	
121	232.4739	100000	992	0.125	
122	232.58572	52000	1359	0.065	
123	232.7958	15000	2182	0.01875	
124	232.95164	66000	1211	0.0825	
125	233.33165	26000	1807	0.0325	
126	233.44298999999998	99000	1019	0.12375	
127	233.96607999999998	36000	1597	0.045	
128	234.04696	160000	766	0.2	
129	234.70097	34000	1636	0.0425	
130	235.544	2800	2739	0.0035	
131	237.0	3100	2728	0.003875	
132	237.243	3100	2729	0.003875	
133	237.708	6700	2609	0.008375	
134	237.826	13000	2276	0.01625	
135	238.018	16000	2132	0.02	
136	238.0267	6900	2594	0.008625	
137	238.304	9800	2436	0.01225	
138	238.42864	140000	837	0.175	
139	238.46400000000003	16000	2133	0.02	
140	238.514	6500	2613	0.008125	
141	238.6398	22000	1904	0.0275	
142	238.69584	150000	796	0.1875	
143	238.748	16000	2134	0.02	
144	238.7778	8600	2501	0.01075	
145	238.80802000000003	48000	1418	0.06	
146	238.8909	150000	797	0.1875	
147	239.0779	39000	1553	0.04875	
148	239.08700000000002	270000	563	0.3375	
149	239.1249	250000	595	0.3125	
150	239.2	3100	2730	0.003875	
151	239.2878	280000	549	0.35	
152	239.415	6700	2610	0.008375	
153	239.4266	10000	2408	0.0125	
154	239.50799999999998	39000	1554	0.04875	
155	239.5434	37000	1579	0.04625	
156	239.609	3200	2726	0.004	
157	239.6477	22000	1905	0.0275	
158	239.671	27000	1789	0.03375	
159	239.75	13000	2277	0.01625	
160	239.7781	250000	596	0.3125	
161	239.813	67000	1202	0.08375	
162	239.827	250000	597	0.3125	
163	239.8675	14000	2231	0.0175	
164	239.888	9500	2450	0.011875	
165	239.99573999999998	250000	598	0.3125	
166	240.145	9600	2447	0.012	
167	240.15599999999998	3400	2717	0.00425	
168	240.19037000000003	180000	710	0.225	
169	240.3014	14000	2232	0.0175	
170	240.3338	49000	1404	0.06125	
171	240.4546	17000	2088	0.02125	
172	240.5223	24000	1853	0.03	
173	240.5481	19000	2011	0.02375	
174	240.5706	13000	2278	0.01625	
175	240.6709	27000	1790	0.03375	
176	240.67475	430000	403	0.5375	
177	240.7428	3400	2718	0.00425	
178	240.7497	22000	1906	0.0275	
179	240.7685	8400	2508	0.0105	
180	240.78995	400000	430	0.5	
181	241.077	7000	2591	0.00875	
182	241.15703	6700	2611	0.008375	
183	241.26895	330000	478	0.4125	
184	241.2797	13000	2279	0.01625	
185	241.30322	260000	582	0.325	
186	241.53291000000002	440000	392	0.55	
187	241.67508999999998	430000	404	0.5375	
188	241.73526	330000	479	0.4125	
189	241.87400000000002	28000	1762	0.035	
190	242.01214	360000	451	0.45	
191	242.06099999999998	11000	2364	0.01375	
192	242.10612000000003	370000	447	0.4625	
193	242.19795	360000	452	0.45	
194	242.33737999999997	150000	798	0.1875	
195	242.61302999999998	33000	1657	0.04125	
196	242.77434	67000	1203	0.08375	
197	242.82779	400000	431	0.5	
198	243.15726	51000	1367	0.06375	
199	243.19545	180000	711	0.225	
200	243.202	270000	564	0.3375	
201	243.55236000000002	400000	432	0.5	
202	243.91043	200000	662	0.25	
203	244.13522000000003	96000	1036	0.12	
204	244.18929	110000	950	0.1375	
205	244.5224	6500	2614	0.008125	
206	244.615	30000	1717	0.0375	
207	244.97799999999998	10000	2409	0.0125	
208	245.479	10000	2410	0.0125	
209	245.541	21000	1929	0.02625	
210	246.495	8300	2513	0.010375	
211	246.51497999999998	47000	1436	0.05875	
212	246.81400000000002	13000	2280	0.01625	
213	247.14422000000002	31000	1703	0.03875	
214	247.35299999999998	17000	2089	0.02125	
215	247.3671	9400	2458	0.01175	
216	247.5178	31000	1704	0.03875	
217	247.653	34000	1637	0.0425	
218	247.8995	33000	1658	0.04125	
219	248.0635	76000	1136	0.095	
220	248.1133	33000	1659	0.04125	
221	248.1299	16000	2135	0.02	
222	248.2141	93000	1053	0.11625	
223	248.2734	54000	1339	0.0675	
224	248.2864	14000	2233	0.0175	
225	248.3115	44000	1479	0.055	
226	248.3378	98000	1027	0.1225	
227	248.3627	16000	2136	0.02	
228	248.3657	28000	1763	0.035	
229	248.7529	62000	1249	0.0775	
230	248.8204	20000	1970	0.025	
231	248.87400000000002	17000	2090	0.02125	
232	248.91299999999998	16000	2137	0.02	
233	249.18200000000002	9000	2481	0.01125	
234	249.57906	49000	1405	0.06125	
235	249.71	9000	2482	0.01125	
236	249.766	34000	1638	0.0425	
237	249.8037	32000	1681	0.04	
238	249.8066	11000	2365	0.01375	
239	249.8218	11000	2366	0.01375	
240	249.826	38000	1563	0.0475	
241	249.90993999999998	83000	1106	0.10375	
242	249.9249	23000	1878	0.02875	
243	249.982	39000	1555	0.04875	
244	249.9965	11000	2367	0.01375	
245	250.0382	12000	2325	0.015	
246	250.16138999999998	540000	330	0.675	
247	250.33039	290000	537	0.3625	
248	250.391	8600	2502	0.01075	
249	250.438	4300	2695	0.005375	
250	250.5542	46000	1449	0.0575	
251	250.6483	21000	1930	0.02625	
252	250.69062999999997	580000	312	0.725	
253	250.77857999999998	920000	221	1.15	
254	250.78627999999998	280000	550	0.35	
255	250.882	24000	1854	0.03	
256	251.018	4700	2679	0.005875	
257	251.02444	23000	1879	0.02875	
258	251.16223	45000	1464	0.05625	
259	251.1652	690000	279	0.8625	
260	251.19457999999997	690000	280	0.8625	
261	251.43832	110000	951	0.1375	
262	251.51461	270000	565	0.3375	
263	251.5652	29000	1742	0.03625	
264	251.71486000000002	690000	281	0.8625	
265	251.7497	29000	1743	0.03625	
266	251.9545	18000	2046	0.0225	
267	251.96232999999998	920000	222	1.15	
268	252.1515	34000	1639	0.0425	
269	252.16041	28000	1764	0.035	
270	252.2	7300	2578	0.009125	
271	252.3515	22000	1907	0.0275	
272	252.62205	1600000	138	2.0	
273	252.7494	7400	2573	0.00925	
274	253.01572000000002	77000	1132	0.09625	
275	253.01852999999997	920000	223	1.15	
276	253.1778	21000	1931	0.02625	
277	253.2273	15000	2183	0.01875	
278	253.3796	33000	1660	0.04125	
279	253.421	15000	2184	0.01875	
280	253.5854	17000	2091	0.02125	
281	254.1764	18000	2047	0.0225	
282	254.37306	88000	1074	0.11	
283	254.4712	18000	2048	0.0225	
284	254.56900000000002	59000	1277	0.07375	
285	254.59241	240000	609	0.3	
286	254.7075	19000	2012	0.02375	
287	254.783	5300	2657	0.006625	
288	254.99687000000003	95000	1041	0.11875	
289	255.26546000000002	470000	355	0.5875	
290	255.48636000000002	220000	636	0.275	
291	255.6023	36000	1598	0.045	
292	255.6822	16000	2138	0.02	
293	255.88955	160000	767	0.2	
294	256.21283	820000	249	1.025	
295	256.48399	430000	405	0.5375	
296	257.027	17000	2092	0.02125	
297	257.40187000000003	900000	226	1.125	
298	257.72902	180000	712	0.225	
299	259.77299999999997	18000	2049	0.0225	
300	260.001	9300	2466	0.011625	
301	260.08	23000	1880	0.02875	
302	260.393	4700	2680	0.005875	
303	260.4302	12000	2326	0.015	
304	260.5089	9700	2445	0.012125	
305	261.0899	15000	2185	0.01875	
306	261.103	6200	2626	0.00775	
307	261.1262	28000	1765	0.035	
308	261.175	5900	2634	0.007375	
309	261.4883	46000	1450	0.0575	
310	261.8909	50000	1390	0.0625	
311	261.9418	33000	1661	0.04125	
312	262.02898999999996	280000	551	0.35	
313	263.2298	8100	2533	0.010125	
314	263.24	13000	2281	0.01625	
315	263.3588	12000	2327	0.015	
316	264.22639	190000	684	0.2375	
317	264.31549	180000	713	0.225	
318	264.469	6800	2605	0.0085	
319	264.52571	610000	309	0.7625	
320	264.599	13000	2282	0.01625	
321	264.77055	370000	448	0.4625	
322	265.18937	580000	313	0.725	
323	265.2918	110000	952	0.1375	
324	265.38221	110000	953	0.1375	
325	265.401	14000	2234	0.0175	
326	265.62212999999997	610000	310	0.7625	
327	265.7708	42000	1499	0.0525	
328	266.14216	730000	266	0.9125	
329	266.59589	120000	910	0.15	
330	266.8892	16000	2139	0.02	
331	267.09197	66000	1212	0.0825	
332	267.16700000000003	120000	911	0.15	
333	267.573	13000	2283	0.01625	
334	267.5763	40000	1538	0.05	
335	267.598	23000	1881	0.02875	
336	267.66900000000004	24000	1855	0.03	
337	267.712	30000	1718	0.0375	
338	267.7459	6300	2624	0.007875	
339	267.86569	330000	480	0.4125	
340	267.88659	61000	1257	0.07625	
341	267.9699	22000	1908	0.0275	
342	268.094	11000	2368	0.01375	
343	268.117	11000	2369	0.01375	
344	268.268	5300	2658	0.006625	
345	268.308	940000	216	1.175	
346	268.502	49000	1406	0.06125	
347	268.513	140000	838	0.175	
348	268.5515	25000	1828	0.03125	
349	268.5835	58000	1286	0.0725	
350	268.63532999999995	25000	1829	0.03125	
351	268.65097000000003	150000	799	0.1875	
352	268.7	7600	2562	0.0095	
353	268.855	5800	2641	0.00725	
354	268.8709	1000000	201	1.25	
355	268.894	23000	1882	0.02875	
356	268.911	17000	2093	0.02125	
357	268.933	6900	2595	0.008625	
358	269.0058	48000	1419	0.06	
359	269.3	12000	2328	0.015	
360	269.392	35000	1615	0.04375	
361	269.5234	18000	2050	0.0225	
362	269.638	5900	2635	0.007375	
363	269.67635	89000	1070	0.11125	
364	269.69917999999996	350000	456	0.4375	
365	269.77412000000004	350000	457	0.4375	
366	269.87316	140000	839	0.175	
367	269.91166	92000	1060	0.115	
368	270.051	7900	2543	0.009875	
369	270.1268	140000	840	0.175	
370	270.39	6000	2632	0.0075	
371	270.7592	25000	1830	0.03125	
372	271.0471	34000	1640	0.0425	
373	271.1874	7900	2544	0.009875	
374	271.2218	13000	2284	0.01625	
375	271.503	65000	1221	0.08125	
376	271.743	25000	1831	0.03125	
377	272.1138	250000	599	0.3125	
378	272.25542	450000	379	0.5625	
379	272.393	17000	2094	0.02125	
380	272.50663	51000	1368	0.06375	
381	272.712	8300	2514	0.010375	
382	272.744	6500	2615	0.008125	
383	272.91200000000003	13000	2285	0.01625	
384	272.981	17000	2095	0.02125	
385	273.13415	540000	331	0.675	
386	273.3334	140000	841	0.175	
387	273.7308	26000	1808	0.0325	
388	273.8073	20000	1971	0.025	
389	274.7536	220000	637	0.275	
390	275.781	43000	1493	0.05375	
391	276.61	7100	2588	0.008875	
392	276.8934	170000	738	0.2125	
393	276.9146	23000	1883	0.02875	
394	277.094	14000	2235	0.0175	
395	277.36758	140000	842	0.175	
396	277.4	56000	1315	0.07	
397	277.5916	21000	1932	0.02625	
398	277.6463	48000	1420	0.06	
399	277.8083	70000	1179	0.0875	
400	278.37788	150000	800	0.1875	
401	278.5538	71000	1164	0.08875	
402	278.56809	150000	801	0.1875	
403	278.8185	42000	1500	0.0525	
404	279.853	19000	2013	0.02375	
405	283.563	21000	1933	0.02625	
406	283.6697	39000	1556	0.04875	
407	283.8051	130000	871	0.1625	
408	283.9433	40000	1539	0.05	
409	284.4922	84000	1100	0.105	
410	284.65677	330000	481	0.4125	
411	284.87731	310000	497	0.3875	
412	284.91717	310000	498	0.3875	
413	285.17509	450000	380	0.5625	
414	285.3555	19000	2014	0.02375	
415	285.3812	30000	1719	0.0375	
416	285.4019	34000	1641	0.0425	
417	285.52221000000003	900000	227	1.125	
418	285.54896	90000	1064	0.1125	
419	285.5713	29000	1744	0.03625	
420	285.79445	200000	663	0.25	
421	285.87599	90000	1065	0.1125	
422	285.8972	28000	1766	0.035	
423	285.99701	810000	253	1.0125	
424	286.1641	2900	2734	0.003625	
425	286.23795	74000	1144	0.0925	
426	286.30471	120000	912	0.15	
427	286.43602999999996	1100000	180	1.375	
428	286.6336	11000	2370	0.01375	
429	286.6418	250000	600	0.3125	
430	286.65917	470000	356	0.5875	
431	286.69496000000004	120000	913	0.15	
432	286.81003	580000	314	0.725	
433	286.9455	45000	1465	0.05625	
434	287.0009	18000	2051	0.0225	
435	287.0044	41000	1518	0.05125	
436	287.05463	930000	218	1.1625	
437	287.33543	96000	1037	0.12	
438	288.769	21000	1934	0.02625	
439	288.8512	18000	2052	0.0225	
440	289.1384	15000	2186	0.01875	
441	289.1937	28000	1767	0.035	
442	289.45722	270000	566	0.3375	
443	289.5162	9100	2475	0.011375	
444	289.8812	51000	1369	0.06375	
445	289.9194	410000	419	0.5125	
446	289.95987	500000	343	0.625	
447	290.36966	280000	552	0.35	
448	290.41249	390000	438	0.4875	
449	290.61325	690000	282	0.8625	
450	291.04400000000004	65000	1222	0.08125	
451	291.4296	14000	2236	0.0175	
452	291.49242999999996	1700000	133	2.125	
453	291.53307	280000	553	0.35	
454	291.60172	150000	802	0.1875	
455	291.7554	33000	1662	0.04125	
456	291.79335	190000	685	0.2375	
457	291.99199	160000	768	0.2	
458	292.1158	24000	1856	0.03	
459	292.2575	150000	803	0.1875	
460	292.36192	3200000	85	4.0	
461	292.5869	120000	914	0.15	
462	292.62568999999996	270000	567	0.3375	
463	292.8716	30000	1720	0.0375	
464	293.46431	41000	1519	0.05125	
465	293.58747	510000	339	0.6375	
466	293.76813	420000	413	0.525	
467	293.77195	100000	993	0.125	
468	293.9277	2900	2735	0.003625	
469	294.111	10000	2411	0.0125	
470	294.23185	650000	304	0.8125	
471	294.23872	410000	420	0.5125	
472	294.31879	1100000	181	1.375	
473	294.3813	58000	1287	0.0725	
474	294.47562	60000	1264	0.075	
475	294.65265	510000	340	0.6375	
476	294.9083	20000	1972	0.025	
477	294.96274	1100000	182	1.375	
478	295.1847	21000	1935	0.02625	
479	295.43343	560000	324	0.7	
480	295.57991	410000	421	0.5125	
481	295.6574	2500	2747	0.003125	
482	295.7144	73000	1149	0.09125	
483	295.73224	390000	439	0.4875	
484	295.9997	12000	2329	0.015	
485	296.085	2700	2743	0.003375	
486	296.11186000000004	140000	843	0.175	
487	296.207	7900	2545	0.009875	
488	296.27738	1900000	122	2.375	
489	296.3793	28000	1768	0.035	
490	296.608	4400	2689	0.0055	
491	296.82872000000003	81000	1117	0.10125	
492	296.8954	23000	1884	0.02875	
493	296.9411	76000	1137	0.095	
494	296.982	8200	2526	0.01025	
495	297.42235	140000	844	0.175	
496	297.5053	88000	1075	0.11	
497	297.6513	71000	1165	0.08875	
498	297.75397999999996	1100000	183	1.375	
499	297.8911	24000	1857	0.03	
500	298.1562	9400	2459	0.01175	
501	298.1749	20000	1973	0.025	
502	298.2154	16000	2140	0.02	
503	299.0332	9500	2451	0.011875	
504	299.0943	59000	1278	0.07375	
505	299.1138	15000	2187	0.01875	
506	299.401	16000	2141	0.02	
507	299.45	9200	2470	0.0115	
508	299.5608	27000	1791	0.03375	
509	299.6488	72000	1156	0.09	
510	299.7899	30000	1721	0.0375	
511	299.8624	28000	1769	0.035	
512	299.9237	160000	769	0.2	
513	300.1883	33000	1663	0.04125	
514	300.24405	63000	1238	0.07875	
515	300.26538999999997	120000	915	0.15	
516	300.32842	69000	1188	0.08625	
517	300.432	36000	1599	0.045	
518	300.48203	63000	1239	0.07875	
519	300.6353	71000	1166	0.08875	
520	300.9095	29000	1745	0.03625	
521	301.1421	6900	2596	0.008625	
522	301.1592	28000	1770	0.035	
523	301.4367	40000	1540	0.05	
524	301.4985	26000	1809	0.0325	
525	301.62122999999997	260000	583	0.325	
526	301.6428	62000	1250	0.0775	
527	302.17733	90000	1066	0.1125	
528	303.0936	120000	916	0.15	
529	303.09999	240000	610	0.3	
530	303.737	26000	1810	0.0325	
531	303.87035	66000	1213	0.0825	
532	303.931	11000	2371	0.01375	
533	304.013	13000	2286	0.01625	
534	304.18525	60000	1265	0.075	
535	304.31192999999996	1100000	184	1.375	
536	304.35489	1100000	185	1.375	
537	304.49325	1100000	186	1.375	
538	304.721	1600	2765	0.002	
539	305.0328	22000	1909	0.0275	
540	305.0391	150000	804	0.1875	
541	305.08788	820000	250	1.025	
542	305.36542000000003	2200000	115	2.75	
543	305.48900000000003	18000	2053	0.0225	
544	305.63327999999996	5800000	52	7.25	
545	305.659	14000	2237	0.0175	
546	306.04522000000003	6700000	45	8.375	
547	306.09211	140000	845	0.175	
548	306.3724	460000	370	0.575	
549	306.63698	11000000	29	13.75	
550	306.65233	1500000	148	1.875	
551	306.96461	680000	291	0.85	
552	307.0863	74000	1145	0.0925	
553	307.27299999999997	27000	1792	0.03375	
554	307.38171	820000	251	1.025	
555	307.38509	680000	292	0.85	
556	307.52655	300000	518	0.375	
557	307.59325	98000	1028	0.1225	
558	307.66118	31000	1705	0.03875	
559	307.7725	38000	1564	0.0475	
560	307.93697000000003	89000	1071	0.11125	
561	308.01447	110000	954	0.1375	
562	308.033	71000	1167	0.08875	
563	308.20063999999996	130000	872	0.1625	
564	308.21096	720000	269	0.9	
565	308.35381	270000	568	0.3375	
566	308.43821	190000	686	0.2375	
567	308.70634	160000	770	0.2	
568	308.81093	320000	491	0.4	
569	308.91258	160000	771	0.2	
570	309.0395	130000	873	0.1625	
571	309.0532	15000	2188	0.01875	
572	309.0776	130000	874	0.1625	
573	309.14342	440000	393	0.55	
574	309.15371	280000	554	0.35	
575	309.155	180000	714	0.225	
576	309.272	140000	846	0.175	
577	309.285	13000	2287	0.01625	
578	309.32382	47000	1437	0.05875	
579	309.37891	230000	621	0.2875	
580	309.46865	200000	664	0.25	
581	309.5898	30000	1722	0.0375	
582	310.3985	28000	1771	0.035	
583	310.6109	23000	1885	0.02875	
584	310.7137	26000	1811	0.0325	
585	311.29186	51000	1370	0.06375	
586	312.1746	35000	1616	0.04375	
587	313.19	19000	2015	0.02375	
588	313.3	19000	2016	0.02375	
589	313.51892999999995	19000	2017	0.02375	
590	313.853	17000	2096	0.02125	
591	313.904	41000	1520	0.05125	
592	313.99844	26000	1812	0.0325	
593	314.6323	25000	1832	0.03125	
594	314.725	49000	1407	0.06125	
595	315.69	8700	2497	0.010875	
596	316.389	4500	2684	0.005625	
597	316.45	14000	2238	0.0175	
598	316.5668	69000	1189	0.08625	
599	316.96	17000	2097	0.02125	
600	317.783	17000	2098	0.02125	
601	317.9087	4800	2676	0.006	
602	318.0056	58000	1288	0.0725	
603	318.0551	12000	2330	0.015	
604	318.1502	4800	2677	0.006	
605	318.163	17000	2099	0.02125	
606	318.34092999999996	16000000	21	20.0	
607	318.34746	160000	772	0.2	
608	318.34746	160000	773	0.2	
609	318.39603	27000000	7	33.75	
610	318.40137999999996	10000000	32	12.5	
611	318.53979	19000000	13	23.75	
612	318.8086	51000	1371	0.06375	
613	318.9044	33000	1664	0.04125	
614	319.06822	4500000	63	5.625	
615	319.39137	170000	739	0.2125	
616	319.4369	25000	1833	0.03125	
617	319.457	14000	2239	0.0175	
618	319.488	37000	1580	0.04625	
619	319.80068	2700000	98	3.375	
620	319.98125	170000	740	0.2125	
621	320.12235	55000	1328	0.06875	
622	320.23819	3800000	73	4.75	
623	320.41866	220000	638	0.275	
624	320.52567999999997	140000	847	0.175	
625	320.55744	1600000	139	2.0	
626	320.6922	11000	2372	0.01375	
627	320.74073	2300000	110	2.875	
628	321.0093	120000	917	0.15	
629	321.04200000000003	58000	1289	0.0725	
630	321.04200000000003	58000	1290	0.0725	
631	321.0501	22000	1910	0.0275	
632	321.132	980	2773	0.001225	
633	321.1573	24000	1858	0.03	
634	321.24298999999996	1500000	149	1.875	
635	321.39316	71000	1168	0.08875	
636	321.53709	500000	344	0.625	
637	321.711	1100000	187	1.375	
638	321.8358	64000	1229	0.08	
639	321.88658	140000	848	0.175	
640	322.2935	7500	2566	0.009375	
641	322.55	26000	1813	0.0325	
642	322.5809	16000	2142	0.02	
643	322.61024	66000	1214	0.0825	
644	322.7107	32000	1682	0.04	
645	322.7402	54000	1340	0.0675	
646	322.81951000000004	24000	1859	0.03	
647	322.96	30000	1723	0.0375	
648	323.04400000000004	4400	2690	0.0055	
649	323.06428	690000	283	0.8625	
650	323.3064	12000	2331	0.015	
651	323.3187	200000	665	0.25	
652	323.3465	10000	2412	0.0125	
653	323.47277	110000	955	0.1375	
654	323.8894	12000	2332	0.015	
655	324.1165	47000	1438	0.05875	
656	324.203	19000	2018	0.02375	
657	324.3269	38000	1565	0.0475	
658	324.39599999999996	18000	2054	0.0225	
659	324.6631	14000	2240	0.0175	
660	324.6825	8300	2515	0.010375	
661	324.86974	42000	1501	0.0525	
662	324.95645	280000	555	0.35	
663	324.97900000000004	7500	2567	0.009375	
664	324.9935	30000	1724	0.0375	
665	325.0031	24000	1860	0.03	
666	325.2867	32000	1683	0.04	
667	325.4397	12000	2333	0.015	
668	325.47700000000003	120000	918	0.15	
669	325.56477	160000	774	0.2	
670	325.6477	21000	1936	0.02625	
671	325.6773	20000	1974	0.025	
672	325.7456	10000	2413	0.0125	
673	325.95341	68000	1195	0.085	
674	326.038	1400	2767	0.00175	
675	326.089	1800	2761	0.00225	
676	326.10766	110000	956	0.1375	
677	326.2057	94000	1048	0.1175	
678	326.22937	82000	1112	0.1025	
679	326.32377	730000	267	0.9125	
680	326.58856000000003	260000	584	0.325	
681	326.60787	120000	919	0.15	
682	327.14072000000004	150000	805	0.1875	
683	327.16339	470000	357	0.5875	
684	327.2193	15000	2189	0.01875	
685	327.30121	270000	569	0.3375	
686	327.7795	15000	2190	0.01875	
687	327.79377999999997	420000	414	0.525	
688	328.33097999999995	470000	358	0.5875	
689	328.4357	200000	666	0.25	
690	328.84337	41000	1521	0.05125	
691	328.95300000000003	2000	2757	0.0025	
692	329.1676	350000	458	0.4375	
693	329.256	8200	2527	0.01025	
694	329.5462	14000	2241	0.0175	
695	329.579	8300	2516	0.010375	
696	329.81474	720000	270	0.9	
697	329.90845	42000	1502	0.0525	
698	329.9243	9900	2430	0.012375	
699	329.959	8300	2517	0.010375	
700	329.9968	3700	2708	0.004625	
701	330.51	8400	2509	0.0105	
702	330.8248	130000	875	0.1625	
703	330.89	21000	1937	0.02625	
704	330.91762	210000	646	0.2625	
705	331.3011	13000	2288	0.01625	
706	331.3887	8100	2534	0.010125	
707	331.4008	29000	1746	0.03625	
708	331.588	21000	1938	0.02625	
709	331.901	50000	1391	0.0625	
710	331.977	18000	2055	0.0225	
711	332.014	45000	1466	0.05625	
712	332.1579	31000	1706	0.03875	
713	332.16823999999997	150000	806	0.1875	
714	332.421	19000	2019	0.02375	
715	332.43904	44000	1480	0.055	
716	332.449	18000	2056	0.0225	
717	332.63886	11000	2373	0.01375	
718	332.7983	26000	1814	0.0325	
719	332.8208	8900	2486	0.011125	
720	332.84	29000	1747	0.03625	
721	332.98532	420000	415	0.525	
722	333.3566	33000	1665	0.04125	
723	333.6211	15000	2191	0.01875	
724	333.6369	20000	1975	0.025	
725	333.6814	20000	1976	0.025	
726	334.0153	13000	2289	0.01625	
727	334.2325	14000	2242	0.0175	
728	334.501	3300	2722	0.004125	
729	335.63505	350000	459	0.4375	
730	336.35400000000004	40000	1541	0.05	
731	336.55497	430000	406	0.5375	
732	336.68789	51000	1372	0.06375	
733	336.9	30000	1725	0.0375	
734	337.02	3700	2709	0.004625	
735	337.11041	32000	1684	0.04	
736	337.4031	26000	1815	0.0325	
737	337.60525	220000	639	0.275	
738	337.73899	220000	640	0.275	
739	337.76231	430000	407	0.5375	
740	337.93756	31000	1707	0.03875	
741	338.376	5900	2636	0.007375	
742	338.4596	60000	1266	0.075	
743	338.691	9500	2452	0.011875	
744	338.73719	25000	1834	0.03125	
745	339.0375	22000	1911	0.0275	
746	339.0759	71000	1169	0.08875	
747	339.161	8100	2535	0.010125	
748	339.2431	19000	2020	0.02375	
749	339.27247	9300	2467	0.011625	
750	339.5526	17000	2100	0.02125	
751	339.62199999999996	2000	2758	0.0025	
752	339.6509	28000	1772	0.035	
753	339.6509	28000	1773	0.035	
754	339.75764	110000	957	0.1375	
755	339.7836	63000	1240	0.07875	
756	339.82633	28000	1774	0.035	
757	339.9181	330000	482	0.4125	
758	340.0189	21000	1939	0.02625	
759	340.03921	690000	284	0.8625	
760	340.13367	48000	1421	0.06	
761	340.23699999999997	2000	2759	0.0025	
762	340.25657	230000	622	0.2875	
763	340.298	8100	2536	0.010125	
764	340.3359	85000	1094	0.10625	
765	340.495	34000	1642	0.0425	
766	340.51531	100000	994	0.125	
767	340.61887	190000	687	0.2375	
768	340.662	41000	1522	0.05125	
769	340.684	64000	1230	0.08	
770	340.8	35000	1617	0.04375	
771	340.90905	54000	1341	0.0675	
772	341.0983	15000	2192	0.01875	
773	341.3784	19000	2021	0.02375	
774	341.41946	75000	1142	0.09375	
775	341.70609	230000	623	0.2875	
776	341.853	180000	715	0.225	
777	342.333	3500	2714	0.004375	
778	342.38599	70000	1180	0.0875	
779	342.50644	360000	453	0.45	
780	342.6722	17000	2101	0.02125	
781	342.709	22000	1912	0.0275	
782	342.7486	4900	2673	0.006125	
783	342.852	9400	2460	0.01175	
784	342.852	9400	2461	0.01175	
785	343.2026	63000	1241	0.07875	
786	343.2859	8600	2503	0.01075	
787	343.608	35000	1618	0.04375	
788	343.77655	24000	1861	0.03	
789	343.7855	10000	2414	0.0125	
790	344.1998	38000	1566	0.0475	
791	344.23102	56000	1316	0.07	
792	344.2928	19000	2022	0.02375	
793	344.58027999999996	27000	1793	0.03375	
794	344.95099999999996	11000	2374	0.01375	
795	345.05	36000	1600	0.045	
796	345.351	18000	2057	0.0225	
797	345.4873	30000	1726	0.0375	
798	345.5206	9400	2462	0.01175	
799	345.559	22000	1913	0.0275	
800	345.69105	76000	1138	0.095	
801	346.009	7500	2568	0.009375	
802	346.3324	6800	2606	0.0085	
803	346.5241	5200	2663	0.0065	
804	347.635	9000	2483	0.01125	
805	348.07599999999996	13000	2290	0.01625	
806	348.217	19000	2023	0.02375	
807	348.5867	24000	1862	0.03	
808	348.70046	22000	1914	0.0275	
809	348.9462	140000	849	0.175	
810	349.0244	19000	2024	0.02375	
811	349.5572	7500	2569	0.009375	
812	349.6234	13000	2291	0.01625	
813	349.6931	38000	1567	0.0475	
814	349.8198	45000	1467	0.05625	
815	349.9006	16000	2143	0.02	
816	350.0334	21000	1940	0.02625	
817	350.08087	120000	920	0.15	
818	350.14827	110000	958	0.1375	
819	350.31699999999995	18000	2058	0.0225	
820	350.5242	15000	2193	0.01875	
821	350.56877000000003	200000	667	0.25	
822	350.68391	39000	1557	0.04875	
823	351.18699999999995	2500	2748	0.003125	
824	351.463	7000	2592	0.00875	
825	351.6163	11000	2375	0.01375	
826	351.6917	10000	2415	0.0125	
827	351.8173	8300	2518	0.010375	
828	351.916	49000	1408	0.06125	
829	352.256	42000	1503	0.0525	
830	352.401	1200	2769	0.0015	
831	352.57662999999997	34000	1643	0.0425	
832	352.7747	36000	1601	0.045	
833	352.82	27000	1794	0.03375	
834	352.94699999999995	6100	2628	0.007625	
835	352.97334	940000	217	1.175	
836	353.0168	9100	2476	0.011375	
837	353.087	10000	2416	0.0125	
838	353.1199	7500	2570	0.009375	
839	353.2268	15000	2194	0.01875	
840	353.3428	5800	2642	0.00725	
841	353.36758	2300000	111	2.875	
842	353.37541	280000	556	0.35	
843	353.4733	45000	1468	0.05625	
844	353.601	15000	2195	0.01875	
845	354.0531	73000	1150	0.09125	
846	354.115	1200	2770	0.0015	
847	354.1237	5600	2649	0.007	
848	354.1986	14000	2243	0.0175	
849	354.2652	51000	1373	0.06375	
850	354.31699999999995	3300	2723	0.004125	
851	354.34938	450000	381	0.5625	
852	354.53345	310000	499	0.3875	
853	354.8673	13000	2292	0.01625	
854	354.8908	14000	2244	0.0175	
855	355.153	54000	1342	0.0675	
856	355.2594	23000	1886	0.02875	
857	355.281	6400	2622	0.008	
858	355.3198	9900	2431	0.012375	
859	355.32681	450000	382	0.5625	
860	355.51388	61000	1258	0.07625	
861	355.57339	71000	1170	0.08875	
862	355.62477	180000	716	0.225	
863	355.9254	17000	2102	0.02125	
864	356.213	36000	1602	0.045	
865	356.33974	45000	1469	0.05625	
866	356.49800000000005	42000	1504	0.0525	
867	356.5506	24000	1863	0.03	
868	356.6146	470000	359	0.5875	
869	356.6824	11000	2376	0.01375	
870	356.89352	180000	717	0.225	
871	356.90788	27000	1795	0.03375	
872	356.9947	25000	1835	0.03125	
873	357.10341	180000	718	0.225	
874	357.12041	58000	1291	0.0725	
875	357.16504	290000	538	0.3625	
876	357.23163999999997	9800	2437	0.01225	
877	357.2539	51000	1374	0.06375	
878	357.35117	290000	539	0.3625	
879	357.4171	13000	2293	0.01625	
880	357.47679	120000	921	0.15	
881	357.51291000000003	100000	995	0.125	
882	357.78718	180000	719	0.225	
883	357.908	31000	1708	0.03875	
884	357.9617	11000	2377	0.01375	
885	358.08259	110000	959	0.1375	
886	358.1388	9800	2438	0.01225	
887	358.1545	9800	2439	0.01225	
888	358.217	21000	1941	0.02625	
889	358.28181	180000	720	0.225	
890	358.3708	230000	624	0.2875	
891	358.4395	20000	1977	0.025	
892	358.6233	12000	2334	0.015	
893	358.6494	6500	2616	0.008125	
894	358.9987	14000	2245	0.0175	
895	359.1064	26000	1816	0.0325	
896	359.2238	2400000	107	3.0	
897	359.4873	5700	2645	0.007125	
898	359.5617	19000	2025	0.02375	
899	359.8098	15000	2196	0.01875	
900	360.00261	83000	1107	0.10375	
901	360.66859	440000	394	0.55	
902	360.9266	44000	1481	0.055	
903	361.0805	14000	2246	0.0175	
904	361.67199999999997	150000	807	0.1875	
905	361.7267	13000	2294	0.01625	
906	361.9503	12000	2335	0.015	
907	362.4162	8800	2491	0.011	
908	362.8425	15000	2197	0.01875	
909	362.9353	22000	1915	0.0275	
910	363.1704	24000	1864	0.03	
911	363.3925	7700	2552	0.009625	
912	363.542	13000	2295	0.01625	
913	363.6972	18000	2059	0.0225	
914	363.724	2800	2740	0.0035	
915	363.7758	120000	922	0.15	
916	363.83964	57000	1305	0.07125	
917	363.85900000000004	11000	2378	0.01375	
918	363.90214	390000	440	0.4875	
919	364.001	18000	2060	0.0225	
920	364.01006	46000	1451	0.0575	
921	364.10962	80000	1120	0.1	
922	364.1171	24000	1865	0.03	
923	364.3098	21000	1942	0.02625	
924	364.38559	200000	668	0.25	
925	364.4275	10000	2417	0.0125	
926	364.47066	440000	395	0.55	
927	364.5526	10000	2418	0.0125	
928	364.55998	73000	1151	0.09125	
929	364.7158	13000	2296	0.01625	
930	364.7266	15000	2198	0.01875	
931	364.73397	62000	1251	0.0775	
932	364.8385	12000	2336	0.015	
933	364.89639	300000	519	0.375	
934	365.24248	54000	1343	0.0675	
935	365.3568	9500	2453	0.011875	
936	365.4671	49000	1409	0.06125	
937	365.4823	10000	2419	0.0125	
938	365.67049	300000	520	0.375	
939	365.74849	150000	808	0.1875	
940	365.9239	5600	2650	0.007	
941	365.9466	25000	1836	0.03125	
942	365.9692	12000	2337	0.015	
943	366.1365	120000	923	0.15	
944	366.2002	20000	1978	0.025	
945	366.2594	6300	2625	0.007875	
946	366.35175	100000	996	0.125	
947	366.35915	850000	238	1.0625	
948	366.51423	250000	601	0.3125	
949	366.77381	850000	239	1.0625	
950	366.78697	52000	1360	0.065	
951	367.12027	690000	285	0.8625	
952	367.2402	320000	492	0.4	
953	367.34027000000003	950000	215	1.1875	
954	367.5499	58000	1292	0.0725	
955	367.56994	1500000	150	1.875	
956	367.66843	570000	319	0.7125	
957	367.67595	95000	1042	0.11875	
958	367.70803	260000	585	0.325	
959	367.98	16000	2144	0.02	
960	368.01129	1000000	202	1.25	
961	368.20599999999996	9400	2463	0.01175	
962	368.25800000000004	20000	1979	0.025	
963	368.31142	3100000	88	3.875	
964	368.4332	65000	1223	0.08125	
965	368.62571	770000	259	0.9625	
966	368.6684	14000	2247	0.0175	
967	368.74827	1600000	140	2.0	
968	368.80683999999997	7000000	44	8.75	
969	368.88144	170000	741	0.2125	
970	369.02792999999997	5400000	56	6.75	
971	369.22194	8100000	38	10.125	
972	369.4613	42000	1505	0.0525	
973	369.53392	1500000	151	1.875	
974	369.58647	5400000	57	6.75	
975	369.94712999999996	65000	1224	0.08125	
976	370.223	29000	1748	0.03625	
977	370.35676	21000000	11	26.25	
978	370.3994	88000	1076	0.11	
979	370.46997000000005	9800000	34	12.25	
980	370.5033	3100000	89	3.875	
981	370.5814	39000	1558	0.04875	
982	370.60295	340000	461	0.425	
983	370.6107	27000	1796	0.03375	
984	370.87138	460000	371	0.575	
985	371.1382	15000	2199	0.01875	
986	371.3311	12000	2338	0.015	
987	371.3533	17000	2103	0.02125	
988	371.39522	230000	625	0.2875	
989	371.4027	11000	2379	0.01375	
990	371.44164	1100000	188	1.375	
991	371.4857	15000	2200	0.01875	
992	371.7559	25000	1837	0.03125	
993	371.79391	850000	240	1.0625	
994	371.8904	130000	876	0.1625	
995	372.0913	11000	2380	0.01375	
996	372.13515	200000	669	0.25	
997	372.1428	61000	1259	0.07625	
998	372.19899	160000	775	0.2	
999	372.2188	130000	877	0.1625	
1000	372.26004	250000	602	0.3125	
1001	372.3324	47000	1439	0.05875	
1002	372.3558	13000	2297	0.01625	
1003	372.42182	890000	231	1.1125	
1004	372.57	32000	1685	0.04	
1005	372.90305	200000	670	0.25	
1006	373.0175	48000	1422	0.06	
1007	373.1028	27000	1797	0.03375	
1008	373.20156000000003	1000000	203	1.25	
1009	373.20599999999996	87000	1078	0.10875	
1010	373.4272	57000	1306	0.07125	
1011	373.44005	480000	352	0.6	
1012	373.6297	8500	2505	0.010625	
1013	373.7022	70000	1181	0.0875	
1014	373.7429	72000	1157	0.09	
1015	373.754	25000	1838	0.03125	
1016	373.79859	160000	776	0.2	
1017	373.87458	300000	521	0.375	
1018	374.02206	130000	878	0.1625	
1019	374.1058	10000	2420	0.0125	
1020	374.15058999999997	310000	500	0.3875	
1021	374.3377	400000	433	0.5	
1022	374.3844	480000	353	0.6	
1023	374.3897	49000	1410	0.06125	
1024	374.5327	19000	2026	0.02375	
1025	374.6365	320000	493	0.4	
1026	374.71296	57000	1307	0.07125	
1027	374.7978	140000	850	0.175	
1028	374.9371	260000	586	0.325	
1029	374.9586	30000	1727	0.0375	
1030	374.9893	20000	1980	0.025	
1031	375.0066	39000	1559	0.04875	
1032	375.0169	18000	2061	0.0225	
1033	375.0797	15000	2201	0.01875	
1034	375.0992	46000	1452	0.0575	
1035	375.1779	180000	721	0.225	
1036	375.2087	20000	1981	0.025	
1037	375.32754	130000	879	0.1625	
1038	375.5137	13000	2298	0.01625	
1039	375.57024	130000	880	0.1625	
1040	375.6031	97000	1030	0.12125	
1041	375.6891	16000	2145	0.02	
1042	375.7734	2300	2752	0.002875	
1043	375.8211	28000	1775	0.035	
1044	375.8296	77000	1133	0.09625	
1045	375.8542	58000	1293	0.0725	
1046	375.8795	60000	1267	0.075	
1047	375.89218999999997	1700000	134	2.125	
1048	375.93171	130000	881	0.1625	
1049	376.0622	12000	2339	0.015	
1050	376.07936	150000	809	0.1875	
1051	376.14363	170000	742	0.2125	
1052	376.16900000000004	16000	2146	0.02	
1053	376.1858	7700	2553	0.009625	
1054	376.3137	300000	522	0.375	
1055	376.4574	13000	2299	0.01625	
1056	376.4786	38000	1568	0.0475	
1057	376.5115	5400	2656	0.00675	
1058	376.5632	19000	2027	0.02375	
1059	376.63975	38000	1569	0.0475	
1060	376.72493	71000	1171	0.08875	
1061	376.9065	150000	810	0.1875	
1062	376.9486	7700	2554	0.009625	
1063	376.9798	20000	1982	0.025	
1064	377.00005	51000	1375	0.06375	
1065	377.0524	84000	1101	0.105	
1066	377.1199	54000	1344	0.0675	
1067	377.166	55000	1329	0.06875	
1068	377.2438	17000	2104	0.02125	
1069	377.5171	140000	851	0.175	
1070	377.57071	130000	882	0.1625	
1071	377.6145	140000	852	0.175	
1072	377.68703999999997	48000	1423	0.06	
1073	377.7157	23000	1887	0.02875	
1074	377.7491	58000	1294	0.0725	
1075	377.8677	1500000	152	1.875	
1076	377.96396	190000	688	0.2375	
1077	377.976	14000	2248	0.0175	
1078	378.065	11000	2381	0.01375	
1079	378.1378	140000	853	0.175	
1080	378.1732	36000	1603	0.045	
1081	378.25451	96000	1038	0.12	
1082	378.272	17000	2105	0.02125	
1083	378.272	17000	2106	0.02125	
1084	378.29	23000	1888	0.02875	
1085	378.4669	30000	1728	0.0375	
1086	378.4818	33000	1666	0.04125	
1087	378.7138	240000	611	0.3	
1088	378.75437999999997	160000	777	0.2	
1089	378.8784	12000	2340	0.015	
1090	379.03237	2900000	93	3.625	
1091	379.0464	710000	272	0.8875	
1092	379.1317	23000	1889	0.02875	
1093	379.3391	41000	1523	0.05125	
1094	379.36099	570000	320	0.7125	
1095	379.49492999999995	6100000	50	7.625	
1096	379.50129	170000	743	0.2125	
1097	379.621	35000	1619	0.04375	
1098	379.621	35000	1620	0.04375	
1099	379.64631	120000	924	0.15	
1100	379.86502	110000	960	0.1375	
1101	379.9261	30000	1729	0.0375	
1102	379.97	35000	1621	0.04375	
1103	379.99081	3200000	86	4.0	
1104	380.116	15000	2202	0.01875	
1105	380.28751	60000	1268	0.075	
1106	380.34772999999996	3200000	87	4.0	
1107	380.37809	290000	540	0.3625	
1108	380.38965	99000	1020	0.12375	
1109	380.4577	72000	1158	0.09	
1110	380.49127999999996	110000	961	0.1375	
1111	380.64599999999996	27000	1798	0.03375	
1112	380.67959	790000	255	0.9875	
1113	380.75041	1700000	135	2.125	
1114	380.811	95000	1043	0.11875	
1115	380.85188	3100000	90	3.875	
1116	380.908	32000	1686	0.04	
1117	380.96007000000003	1300000	164	1.625	
1118	381.0383	9800	2440	0.01225	
1119	381.33462000000003	93000	1054	0.11625	
1120	381.34904	6000000	51	7.5	
1121	381.55152000000004	530000	334	0.6625	
1122	381.78437	300000	523	0.375	
1123	381.79756000000003	370000	449	0.4625	
1124	381.82412999999997	7800000	41	9.75	
1125	381.8767	48000	1424	0.06	
1126	381.99642	1300000	165	1.625	
1127	382.02918	290000	541	0.3625	
1128	382.14864	1300000	166	1.625	
1129	382.20049	3400000	81	4.25	
1130	382.26711	56000	1317	0.07	
1131	382.28887000000003	2500000	102	3.125	
1132	382.32121	1700000	136	2.125	
1133	382.3376	52000	1361	0.065	
1134	382.3742	84000	1102	0.105	
1135	382.39772999999997	300000	524	0.375	
1136	382.4993	20000	1983	0.025	
1137	382.5313	4000	2704	0.005	
1138	382.54024	2200000	116	2.75	
1139	382.6434	11000	2382	0.01375	
1140	382.67696	210000	647	0.2625	
1141	382.85567000000003	10000000	33	12.5	
1142	382.88315	220000	641	0.275	
1143	383.0263	140000	854	0.175	
1144	383.059	29000	1749	0.03625	
1145	383.1821	28000	1776	0.035	
1146	383.28291	110000	962	0.1375	
1147	383.32164	86000	1088	0.1075	
1148	383.3421	14000	2249	0.0175	
1149	383.38	38000	1570	0.0475	
1150	383.41367	95000	1044	0.11875	
1151	383.4206	1100000	189	1.375	
1152	383.4813	13000	2300	0.01625	
1153	383.51800000000003	500000	345	0.625	
1154	383.556	340000	462	0.425	
1155	383.60534	340000	463	0.425	
1156	383.6398	32000	1687	0.04	
1157	383.74300000000005	58000	1295	0.0725	
1158	383.7731	17000	2107	0.02125	
1159	383.9001	730000	268	0.9125	
1160	383.9376	410000	422	0.5125	
1161	384.00227	2500000	103	3.125	
1162	384.01344	320000	494	0.4	
1163	384.04278	2600000	100	3.25	
1164	384.07493999999997	16000000	22	20.0	
1165	384.18907	660000	296	0.825	
1166	384.199	14000	2250	0.0175	
1167	384.27335	210000	648	0.2625	
1168	384.3504	240000	612	0.3	
1169	384.44362	2300000	112	2.875	
1170	384.48866	210000	649	0.2625	
1171	384.664	28000	1777	0.035	
1172	384.73262	1900000	123	2.375	
1173	384.93194	470000	360	0.5875	
1174	385.0118	14000	2251	0.0175	
1175	385.11722000000003	340000	464	0.425	
1176	385.20952	180000	722	0.225	
1177	385.486	35000	1622	0.04375	
1178	385.53636	7300000	42	9.125	
1179	385.584	18000000	15	22.5	
1180	385.585	2100000	119	2.625	
1181	385.787	36000	1604	0.045	
1182	385.86800000000005	300000	525	0.375	
1183	385.9336	340000	465	0.425	
1184	385.9414	120000	925	0.15	
1185	385.9615	14000	2252	0.0175	
1186	386.0743	16000	2147	0.02	
1187	386.16076	150000	811	0.1875	
1188	386.2123	76000	1139	0.095	
1189	386.22173	910000	225	1.1375	
1190	386.3174	13000	2301	0.01625	
1191	386.3608	44000	1482	0.055	
1192	386.38596	550000	329	0.6875	
1193	386.455	36000	1605	0.045	
1194	386.48562000000004	7900000	40	9.875	
1195	386.6385	36000	1606	0.045	
1196	386.73412	150000	812	0.1875	
1197	386.76021000000003	1400000	154	1.75	
1198	386.8852	16000	2148	0.02	
1199	386.9976	15000	2203	0.01875	
1200	387.0573	150000	813	0.1875	
1201	387.0687	21000	1943	0.02625	
1202	387.0986	59000	1279	0.07375	
1203	387.10751	720000	271	0.9	
1204	387.2757	250000	603	0.3125	
1205	387.2881	15000	2204	0.01875	
1206	387.3214	42000	1506	0.0525	
1207	387.36306	280000	557	0.35	
1208	387.43412	45000	1470	0.05625	
1209	387.50714	9000000	35	11.25	
1210	387.52009	200000	671	0.25	
1211	387.5261	28000	1778	0.035	
1212	387.5312	89000	1072	0.11125	
1213	387.5422	450000	383	0.5625	
1214	387.5552	87000	1079	0.10875	
1215	387.58979	2500000	104	3.125	
1216	387.60804	3400000	82	4.25	
1217	387.6738	67000	1204	0.08375	
1218	387.7731	8200	2528	0.01025	
1219	387.8328	74000	1146	0.0925	
1220	387.9225	110000	963	0.1375	
1221	387.9653	48000	1425	0.06	
1222	387.9748	40000	1542	0.05	
1223	388.0249	35000	1623	0.04375	
1224	388.0418	44000	1483	0.055	
1225	388.0833	8900	2487	0.011125	
1226	388.1587	50000	1392	0.0625	
1227	388.1789	44000	1484	0.055	
1228	388.38759	150000	814	0.1875	
1229	388.39411	55000	1330	0.06875	
1230	388.44617999999997	100000	997	0.125	
1231	388.533	37000	1581	0.04625	
1232	388.5569	22000	1916	0.0275	
1233	388.5773	69000	1190	0.08625	
1234	388.6193	58000	1296	0.0725	
1235	388.65785	380000	445	0.475	
1236	388.6677	21000	1944	0.02625	
1237	388.7568	18000	2062	0.0225	
1238	388.80595	86000	1089	0.1075	
1239	388.83166	130000	883	0.1625	
1240	388.92199999999997	27000	1799	0.03375	
1241	388.9521	10000	2421	0.0125	
1242	388.9713	27000	1800	0.03375	
1243	388.9829	26000	1817	0.0325	
1244	389.0179	4200000	67	5.25	
1245	389.02797000000004	150000	815	0.1875	
1246	389.11291	170000	744	0.2125	
1247	389.1214	130000	884	0.1625	
1248	389.1214	130000	885	0.1625	
1249	389.1464	37000	1582	0.04625	
1250	389.24452	120000	926	0.15	
1251	389.28564	2800000	96	3.5	
1252	389.29742000000005	53000	1351	0.06625	
1253	389.3738	32000	1688	0.04	
1254	389.40353999999996	300000	526	0.375	
1255	389.4104	5200	2664	0.0065	
1256	389.57039	85000	1095	0.10625	
1257	389.6144	410000	423	0.5125	
1258	389.66123999999996	72000	1159	0.09	
1259	389.6778	49000	1411	0.06125	
1260	389.70726	300000	527	0.375	
1261	389.79655	400000	434	0.5	
1262	389.80511	670000	294	0.8375	
1263	389.81322	340000	466	0.425	
1264	389.8259	290000	542	0.3625	
1265	389.8464	13000	2302	0.01625	
1266	389.9356	32000	1689	0.04	
1267	390.00939	260000	587	0.325	
1268	390.01707999999996	180000	723	0.225	
1269	390.11532	470000	361	0.5875	
1270	390.1683	85000	1096	0.10625	
1271	390.22531000000004	14000000	23	17.5	
1272	390.2492	14000	2253	0.0175	
1273	390.25442999999996	150000	816	0.1875	
1274	390.439	93000	1055	0.11625	
1275	390.44636	190000	689	0.2375	
1276	390.5697	450000	384	0.5625	
1277	390.67467999999997	460000	372	0.575	
1278	390.71782	62000	1252	0.0775	
1279	390.82992	130000	886	0.1625	
1280	390.9402	22000	1917	0.0275	
1281	390.96643	230000	626	0.2875	
1282	390.98571	4200000	68	5.25	
1283	390.9915	1800000	130	2.25	
1284	391.00357	360000	454	0.45	
1285	391.0389	11000	2383	0.01375	
1286	391.07874	470000	362	0.5875	
1287	391.1698	40000	1543	0.05	
1288	391.22	1000000	204	1.25	
1289	391.22	1000000	205	1.25	
1290	391.23875	290000	543	0.3625	
1291	391.2881	230000	627	0.2875	
1292	391.3578	37000	1583	0.04625	
1293	391.4062	15000	2205	0.01875	
1294	391.4325	50000	1393	0.0625	
1295	391.5117	40000	1544	0.05	
1296	391.5377	64000	1231	0.08	
1297	391.6535	32000	1690	0.04	
1298	391.9053	17000	2108	0.02125	
1299	391.99805	48000	1426	0.06	
1300	392.0484	470000	363	0.5875	
1301	392.1734	9500	2454	0.011875	
1302	392.19043	470000	364	0.5875	
1303	392.24291	1100000	190	1.375	
1304	392.4263	8000	2539	0.01	
1305	392.46495	900000	228	1.125	
1306	392.4721	3700	2710	0.004625	
1307	392.4764	66000	1215	0.0825	
1308	392.5194	500000	346	0.625	
1309	392.52376	1300000	167	1.625	
1310	392.6692	36000	1607	0.045	
1311	392.7925	750000	260	0.9375	
1312	392.7925	750000	261	0.9375	
1313	392.8465	26000	1818	0.0325	
1314	393.00185	1100000	191	1.375	
1315	393.12271	150000	817	0.1875	
1316	393.13347999999996	570000	321	0.7125	
1317	393.3194	12000	2341	0.015	
1318	393.3446	42000	1507	0.0525	
1319	393.3548	38000	1571	0.0475	
1320	393.4007	1200000	174	1.5	
1321	393.5131	570000	322	0.7125	
1322	393.62772	470000	365	0.5875	
1323	393.75199999999995	190000	690	0.2375	
1324	393.8195	170000	745	0.2125	
1325	393.8879	42000	1508	0.0525	
1326	393.9325	190000	691	0.2375	
1327	394.0582	62000	1253	0.0775	
1328	394.12439	150000	818	0.1875	
1329	394.1995	390000	441	0.4875	
1330	394.3588	100000	998	0.125	
1331	394.3659	700000	275	0.875	
1332	394.3937	32000	1691	0.04	
1333	394.5188	24000	1866	0.03	
1334	394.5879	23000	1890	0.02875	
1335	394.86234	89000	1073	0.11125	
1336	395.0117	42000	1509	0.0525	
1337	395.02258	330000	483	0.4125	
1338	396.3609	270000	570	0.3375	
1339	396.4428	23000	1891	0.02875	
1340	396.56743	740000	263	0.925	
1341	397.1947	52000	1362	0.065	
1342	397.3347	55000	1331	0.06875	
1343	397.5342	40000	1545	0.05	
1344	397.834	42000	1510	0.0525	
1345	397.9137	160000	778	0.2	
1346	397.94194	170000	746	0.2125	
1347	398.0508	150000	819	0.1875	
1348	398.0634	4300	2696	0.005375	
1349	398.4329	190000	692	0.2375	
1350	398.45865	340000	467	0.425	
1351	398.76300000000003	35000	1624	0.04375	
1352	398.8084	26000	1819	0.0325	
1353	398.8827	340000	468	0.425	
1354	399.05373	860000	236	1.075	
1355	399.05959	2100000	120	2.625	
1356	399.1048	34000	1644	0.0425	
1357	399.26466	140000	855	0.175	
1358	399.27948	990000	211	1.2375	
1359	399.4878	56000	1318	0.07	
1360	399.87232	1600000	141	2.0	
1361	399.99300000000005	55000	1332	0.06875	
1362	400.0079	43000	1494	0.05375	
1363	400.16611	160000	779	0.2	
1364	400.20300000000003	410000	424	0.5125	
1365	400.2463	230000	628	0.2875	
1366	400.3161	16000	2149	0.02	
1367	400.3524	63000	1242	0.07875	
1368	400.4304	90000	1067	0.1125	
1369	400.7013	12000	2342	0.015	
1370	400.9782	41000	1524	0.05125	
1371	401.1305	54000	1345	0.0675	
1372	401.2495	210000	650	0.2625	
1373	401.5067	180000	724	0.225	
1374	401.53472	6800	2607	0.0085	
1375	401.5659	19000	2028	0.02375	
1376	401.6663	20000	1984	0.025	
1377	401.7133	190000	693	0.2375	
1378	401.74887	150000	820	0.1875	
1379	401.8932	14000	2254	0.0175	
1380	401.91367	35000	1625	0.04375	
1381	401.9449	18000	2063	0.0225	
1382	402.0287	150000	821	0.1875	
1383	402.0539	23000	1892	0.02875	
1384	402.1414	5500	2654	0.006875	
1385	402.1682	110000	964	0.1375	
1386	402.1909	51000	1376	0.06375	
1387	402.2095	140000	856	0.175	
1388	402.305	28000	1779	0.035	
1389	402.31694	170000	747	0.2125	
1390	402.3427	28000	1780	0.035	
1391	402.4424	21000	1945	0.02625	
1392	402.53	26000	1820	0.0325	
1393	402.62	4000	2705	0.005	
1394	402.691	18000	2064	0.0225	
1395	402.7967	60000	1269	0.075	
1396	402.8099	6400	2623	0.008	
1397	402.9889	51000	1377	0.06375	
1398	403.0046	100000	999	0.125	
1399	403.0118	13000	2303	0.01625	
1400	403.1219	78000	1127	0.0975	
1401	403.1571	11000	2384	0.01375	
1402	403.1829	400000	435	0.5	
1403	403.249	57000	1308	0.07125	
1404	403.2844	29000	1750	0.03625	
1405	403.306	71000	1172	0.08875	
1406	403.3727	72000	1160	0.09	
1407	403.4736	12000	2343	0.015	
1408	403.5089	19000	2029	0.02375	
1409	403.5887	160000	780	0.2	
1410	403.616	18000	2065	0.0225	
1411	403.7245	11000	2385	0.01375	
1412	403.7387	8700	2498	0.010875	
1413	403.7983	74000	1147	0.0925	
1414	404.0059	12000	2344	0.015	
1415	404.0292	35000	1626	0.04375	
1416	404.152	25000	1839	0.03125	
1417	404.26300000000003	460000	373	0.575	
1418	404.49213	430000	408	0.5375	
1419	404.5395	420000	416	0.525	
1420	404.6236	330000	484	0.4125	
1421	404.6878	34000	1645	0.0425	
1422	404.74199999999996	8100	2537	0.010125	
1423	404.74213	2200000	117	2.75	
1424	404.8615	310000	501	0.3875	
1425	405.09536	1300000	168	1.625	
1426	405.1349	1300000	169	1.625	
1427	405.2447	15000	2206	0.01875	
1428	405.3249	190000	694	0.2375	
1429	405.3648	13000	2304	0.01625	
1430	405.59058	470000	366	0.5875	
1431	405.70637999999997	1000000	206	1.25	
1432	405.782	490000	349	0.6125	
1433	406.0382	800000	254	1.0	
1434	406.0827	21000	1946	0.02625	
1435	406.1585	5300	2659	0.006625	
1436	406.27032	6300000	47	7.875	
1437	406.39258	830000	244	1.0375	
1438	406.4898	1400000	155	1.75	
1439	406.542	12000	2345	0.015	
1440	406.7736	65000	1225	0.08125	
1441	406.7966	61000	1260	0.07625	
1442	406.96213	1900000	124	2.375	
1443	407.0762	55000	1333	0.06875	
1444	407.1532	880000	232	1.1	
1445	407.2129	180000	725	0.225	
1446	407.41900000000004	53000	1352	0.06625	
1447	407.79699999999997	4400	2691	0.0055	
1448	407.871	7400	2574	0.00925	
1449	407.93324	150000	822	0.1875	
1450	408.2909	300000	528	0.375	
1451	408.4216	10000	2422	0.0125	
1452	408.9941	120000	927	0.15	
1453	409.0508	47000	1440	0.05875	
1454	409.0568	5300000	58	6.625	
1455	409.19329	230000	629	0.2875	
1456	409.23921	840000	242	1.05	
1457	409.2521	95000	1045	0.11875	
1458	409.26828	11000000	30	13.75	
1459	409.348	560000	325	0.7	
1460	409.348	560000	326	0.7	
1461	409.4268	240000	613	0.3	
1462	409.4268	240000	614	0.3	
1463	409.54751	4300000	66	5.375	
1464	409.6928	60000	1270	0.075	
1465	409.83759	190000	695	0.2375	
1466	409.8477	12000	2346	0.015	
1467	409.879	9000	2484	0.01125	
1468	409.88615	6200	2627	0.00775	
1469	409.97835	17000000	18	21.25	
1470	410.0989	37000	1584	0.04625	
1471	410.1334	6900	2597	0.008625	
1472	410.1581	7600	2563	0.0095	
1473	410.2149	2900000	94	3.625	
1474	410.2471	6900	2598	0.008625	
1475	410.32043999999996	1200000	175	1.5	
1476	410.3404	37000	1585	0.04625	
1477	410.4377	840000	243	1.05	
1478	410.4767	990000	212	1.2375	
1479	410.51572000000004	17000000	19	21.25	
1480	410.74686	300000	529	0.375	
1481	410.8196	440000	396	0.55	
1482	410.9028	40000	1546	0.05	
1483	410.97572	14000000	24	17.5	
1484	410.98172999999997	930000	219	1.1625	
1485	411.05392	990000	213	1.2375	
1486	411.07381000000004	36000	1608	0.045	
1487	411.1571	110000	965	0.1375	
1488	411.17787000000004	53000000	3	66.25	
1489	411.1978	1100000	192	1.375	
1490	411.21865	97000	1031	0.12125	
1491	411.23205	440000	397	0.55	
1492	411.3058	740000	264	0.925	
1493	411.35067000000004	1100000	193	1.375	
1494	411.4558	240000	615	0.3	
1495	411.51777999999996	25000000	8	31.25	
1496	411.5475	160000	781	0.2	
1497	411.64715	11000000	31	13.75	
1498	411.65474	1400000	156	1.75	
1499	411.6686	170000	748	0.2125	
1500	411.79699999999997	23000	1893	0.02875	
1501	411.81771000000003	690000	286	0.8625	
1502	411.8251	100000	1000	0.125	
1503	411.86247000000003	870000	234	1.0875	
1504	411.9088	49000	1412	0.06125	
1505	411.9248	8900	2488	0.011125	
1506	411.94437999999997	1100000	194	1.375	
1507	412.05264	870000	235	1.0875	
1508	412.0732	12000	2347	0.015	
1509	412.0954	82000	1113	0.1025	
1510	412.17771	820000	252	1.025	
1511	412.2294	25000	1840	0.03125	
1512	412.3175	690000	287	0.8625	
1513	412.34984	12000000	28	15.0	
1514	412.40612999999996	560000	327	0.7	
1515	412.77	64000	1232	0.08	
1516	412.80642	18000000	16	22.5	
1517	412.88507999999996	460000	374	0.575	
1518	413.0137	19000	2030	0.02375	
1519	413.0352	25000	1841	0.03125	
1520	413.0939	20000	1985	0.025	
1521	413.1167	33000	1667	0.04125	
1522	413.1478	310000	502	0.3875	
1523	413.18037000000004	72000	1161	0.09	
1524	413.19909	18000000	17	22.5	
1525	413.2403	38000	1572	0.0475	
1526	413.2883	57000	1309	0.07125	
1527	413.3066	17000	2109	0.02125	
1528	413.3768	270000	571	0.3375	
1529	413.3768	270000	572	0.3375	
1530	413.389	330000	485	0.4125	
1531	413.44836000000004	14000000	25	17.5	
1532	413.4779	440000	398	0.55	
1533	413.5294	69000	1191	0.08625	
1534	413.6101	250000	604	0.3125	
1535	413.6379	99000	1021	0.12375	
1536	413.6928	37000	1586	0.04625	
1537	413.7228	8900	2489	0.011125	
1538	413.7975	18000	2066	0.0225	
1539	413.8108	27000	1801	0.03375	
1540	413.81658	1900000	125	2.375	
1541	413.82237000000003	710000	273	0.8875	
1542	413.9248	250000	605	0.3125	
1543	413.9372	18000	2067	0.0225	
1544	413.9618	7500	2571	0.009375	
1545	414.1327	86000	1090	0.1075	
1546	414.1816	48000	1427	0.06	
1547	414.2353	76000	1140	0.095	
1548	414.2624	56000	1319	0.07	
1549	414.2866	28000	1781	0.035	
1550	414.3383	21000	1947	0.02625	
1551	414.5505	29000	1751	0.03625	
1552	414.6035	14000	2255	0.0175	
1553	414.8853	62000	1254	0.0775	
1554	415.065	140000	857	0.175	
1555	415.1329	37000	1587	0.04625	
1556	415.3316	60000	1271	0.075	
1557	415.5183	19000	2031	0.02375	
1558	415.589	73000	1152	0.09125	
1559	415.7943	87000	1080	0.10875	
1560	415.838	29000	1752	0.03625	
1561	415.8502	10000	2423	0.0125	
1562	415.96801	900000	229	1.125	
1563	416.0395	15000	2207	0.01875	
1564	416.2316	32000	1692	0.04	
1565	416.4153	9400	2464	0.01175	
1566	416.6694	27000	1802	0.03375	
1567	416.6998	19000	2032	0.02375	
1568	416.8907	42000	1511	0.0525	
1569	416.9255	51000	1378	0.06375	
1570	417.1293	260000	588	0.325	
1571	417.1589	13000	2305	0.01625	
1572	417.4007	410000	425	0.5125	
1573	417.4393	11000	2386	0.01375	
1574	417.5118	72000	1162	0.09	
1575	417.6635	40000	1547	0.05	
1576	417.6786	99000	1022	0.12375	
1577	417.7063	110000	966	0.1375	
1578	417.7546	26000	1821	0.0325	
1579	417.8962	290000	544	0.3625	
1580	417.94076	1400000	157	1.75	
1581	418.0481	3400	2719	0.00425	
1582	418.0821	27000	1803	0.03375	
1583	418.20668	270000	573	0.3375	
1584	418.25822	900000	230	1.125	
1585	418.3267	34000	1646	0.0425	
1586	418.4111	7400	2575	0.00925	
1587	418.6769	57000	1310	0.07125	
1588	418.7695	45000	1471	0.05625	
1589	418.8618	4000	2706	0.005	
1590	418.98377	1100000	195	1.375	
1591	419.0726	14000	2256	0.0175	
1592	419.1516	1100000	196	1.375	
1593	419.15662000000003	20600000	12	25.75	
1594	419.1806	17000	2110	0.02125	
1595	419.3989	41000	1525	0.05125	
1596	419.559	70000	1182	0.0875	
1597	419.6229	8000	2540	0.01	
1598	419.7276	32000	1693	0.04	
1599	419.75975999999997	260000	589	0.325	
1600	419.8605	390000	442	0.4875	
1601	419.9576	17000	2111	0.02125	
1602	419.9819	33000	1668	0.04125	
1603	420.01883	300000	530	0.375	
1604	420.0898	210000	651	0.2625	
1605	420.31	390000	443	0.4875	
1606	420.3615	520000	337	0.65	
1607	420.4502	7300	2579	0.009125	
1608	420.6594	21000	1948	0.02625	
1609	420.98524000000003	1400000	158	1.75	
1610	421.0847	20000	1986	0.025	
1611	421.3467	9900	2432	0.012375	
1612	421.3908	19000	2033	0.02375	
1613	421.6348	55000	1334	0.06875	
1614	421.7966	14000	2257	0.0175	
1615	421.8054	22000	1918	0.0275	
1616	421.8487	13000	2306	0.01625	
1617	421.8705	390000	444	0.4875	
1618	421.9491	56000	1320	0.07	
1619	422.1035	20000	1987	0.025	
1620	422.2338	39000	1560	0.04875	
1621	422.2574	17000	2112	0.02125	
1622	422.2918	30000	1730	0.0375	
1623	422.41294000000005	250000	606	0.3125	
1624	422.6064	17000	2113	0.02125	
1625	422.66170999999997	470000	367	0.5875	
1626	422.7735	210000	652	0.2625	
1627	422.9692	200000	672	0.25	
1628	423.24564000000004	1400000	159	1.75	
1629	423.29464	700000	276	0.875	
1630	423.4	700000	277	0.875	
1631	423.4	700000	278	0.875	
1632	423.45227	330000	486	0.4125	
1633	423.57581	470000	368	0.5875	
1634	423.6616	58000	1297	0.0725	
1635	423.7484	5900	2637	0.007375	
1636	423.8947	41000	1526	0.05125	
1637	423.9604	41000	1527	0.05125	
1638	424.0081	95000	1046	0.11875	
1639	424.0353	200000	673	0.25	
1640	424.1309	110000	967	0.1375	
1641	424.6348	5200	2665	0.0065	
1642	424.6713	50000	1394	0.0625	
1643	424.80699999999996	16000	2150	0.02	
1644	425.1242	11000	2387	0.01375	
1645	425.2743	6500	2617	0.008125	
1646	425.2834	95000	1047	0.11875	
1647	425.4424	20000	1988	0.025	
1648	425.5555	14000	2258	0.0175	
1649	425.73633	400000	436	0.5	
1650	425.8847	33000	1669	0.04125	
1651	425.93087	780000	257	0.975	
1652	426.0135	23000	1894	0.02875	
1653	426.1195	94000	1049	0.1175	
1654	426.21552	480000	354	0.6	
1655	426.5896	48000	1428	0.06	
1656	426.755	18000	2068	0.0225	
1657	426.86375999999996	2300000	113	2.875	
1658	426.9754	200000	674	0.25	
1659	427.0307	170000	749	0.2125	
1660	427.03166	19000000	14	23.75	
1661	427.15483	1900000	126	2.375	
1662	427.2726	14000	2259	0.0175	
1663	427.3404	12000	2348	0.015	
1664	427.6951	1900000	127	2.375	
1665	427.7201	51000	1379	0.06375	
1666	427.9528	16000	2151	0.02	
1667	428.2898	180000	726	0.225	
1668	428.3845	38000	1573	0.0475	
1669	428.40425999999997	1700000	137	2.125	
1670	428.6409	200000	675	0.25	
1671	428.7795	150000	823	0.1875	
1672	428.8803	40000	1548	0.05	
1673	429.0373	12000	2349	0.015	
1674	429.12885	160000	782	0.2	
1675	429.18062000000003	1200000	176	1.5	
1676	429.60972999999996	830000	245	1.0375	
1677	429.7093	71000	1173	0.08875	
1678	429.76724	640000	305	0.8	
1679	429.8024	640000	306	0.8	
1680	429.8576	13000	2307	0.01625	
1681	429.8576	13000	2308	0.01625	
1682	429.9076	50000	1395	0.0625	
1683	430.2116	57000	1311	0.07125	
1684	430.35157000000004	110000	968	0.1375	
1685	430.4812	8300	2519	0.010375	
1686	430.5396	32000	1694	0.04	
1687	430.5472	150000	824	0.1875	
1688	430.62088	1100000	197	1.375	
1689	430.6564	21000	1949	0.02625	
1690	430.71732000000003	930000	220	1.1625	
1691	430.7317	13000	2309	0.01625	
1692	430.8433	24000	1867	0.03	
1693	430.9236	200000	676	0.25	
1694	430.9517	93000	1056	0.11625	
1695	430.9793	1100000	198	1.375	
1696	431.1435	29000	1753	0.03625	
1697	431.1613	33000	1670	0.04125	
1698	431.2817	8300	2520	0.010375	
1699	431.3516	190000	696	0.2375	
1700	431.38869000000005	160000	783	0.2	
1701	431.4193	19000	2034	0.02375	
1702	431.4822	71000	1174	0.08875	
1703	431.5788	5700	2646	0.007125	
1704	431.8512	130000	887	0.1625	
1705	431.9925	10000	2424	0.0125	
1706	432.0263	28000	1782	0.035	
1707	432.2005	5100	2669	0.006375	
1708	432.2328	31000	1709	0.03875	
1709	432.3508	11000	2388	0.01375	
1710	432.4627	8200	2529	0.01025	
1711	432.6163	37000	1588	0.04625	
1712	432.6246	82000	1114	0.1025	
1713	432.7677	270000	574	0.3375	
1714	433.00227	3100000	91	3.875	
1715	433.1078	21000	1950	0.02625	
1716	433.1443	540000	332	0.675	
1717	433.2112	11000	2389	0.01375	
1718	433.2375	55000	1335	0.06875	
1719	433.28185	3400000	83	4.25	
1720	433.3688	130000	888	0.1625	
1721	433.4095	190000	697	0.2375	
1722	433.5458	11000	2390	0.01375	
1723	433.6115	41000	1528	0.05125	
1724	433.8815	180000	727	0.225	
1725	433.9163	16000	2152	0.02	
1726	434.09977000000003	5000000	62	6.25	
1727	434.219	240000	616	0.3	
1728	434.28258	200000	677	0.25	
1729	434.4834	180000	728	0.225	
1730	434.7429	16000	2153	0.02	
1731	435.0664	140000	858	0.175	
1732	435.0807	120000	928	0.15	
1733	435.2436	140000	859	0.175	
1734	435.28652999999997	6600000	46	8.25	
1735	435.3326	140000	860	0.175	
1736	435.49678	530000	335	0.6625	
1737	435.59425999999996	1000000	207	1.25	
1738	435.6784	41000	1529	0.05125	
1739	435.7441	110000	969	0.1375	
1740	435.7648	35000	1627	0.04375	
1741	436.0578	170000	750	0.2125	
1742	436.1002	46000	1453	0.0575	
1743	436.12699999999995	6900	2599	0.008625	
1744	436.1391	67000	1205	0.08375	
1745	436.3309	110000	970	0.1375	
1746	436.3519	310000	503	0.3875	
1747	436.4208	190000	698	0.2375	
1748	436.5735	180000	729	0.225	
1749	436.7056	39000	1561	0.04875	
1750	436.80404000000004	990000	214	1.2375	
1751	436.85915	190000	699	0.2375	
1752	436.9057	47000	1441	0.05875	
1753	437.3224	440000	399	0.55	
1754	437.3423	26000	1822	0.0325	
1755	437.3818	290000	545	0.3625	
1756	437.4198	16000	2154	0.02	
1757	437.5056	70000	1183	0.0875	
1758	437.5304	330000	487	0.4125	
1759	437.6057	24000	1868	0.03	
1760	437.6787	16000	2155	0.02	
1761	437.7866	87000	1081	0.10875	
1762	437.7932	150000	825	0.1875	
1763	437.92298	74000000	2	92.5	
1764	438.0544	380000	446	0.475	
1765	438.0959	166000	765	0.2075	
1766	438.0978	130000	889	0.1625	
1767	438.106	37000	1589	0.04625	
1768	438.1244	84000	1103	0.105	
1769	438.1742	20000	1989	0.025	
1770	438.3897	110000	971	0.1375	
1771	438.4183	110000	972	0.1375	
1772	438.47122	44000000	4	55.0	
1773	438.533	51000	1380	0.06375	
1774	438.72065999999995	440000	400	0.55	
1775	438.8096	18000	2069	0.0225	
1776	438.9789	97000	1032	0.12125	
1777	438.99791	30000000	5	37.5	
1778	439.0603	97000	1033	0.12125	
1779	439.167	72000	1163	0.09	
1780	439.2066	560000	328	0.7	
1781	439.30800000000005	180000	730	0.225	
1782	439.3833	230000	630	0.2875	
1783	439.4802	660000	297	0.825	
1784	439.52235	23000000	9	28.75	
1785	439.7356	17000	2114	0.02125	
1786	439.7842	10000	2425	0.0125	
1787	439.94135	190000	700	0.2375	
1788	440.05717999999996	8800000	37	11.0	
1789	440.1102	26000	1823	0.0325	
1790	440.1732	17000	2115	0.02125	
1791	440.3668	310000	504	0.3875	
1792	440.5022	340000	469	0.425	
1793	440.577	20000	1990	0.025	
1794	440.61	460000	375	0.575	
1795	440.66388	14000000	26	17.5	
1796	440.76335	17000000	20	21.25	
1797	440.81959000000006	23000000	10	28.75	
1798	440.84930999999995	80000000	1	100.0	
1799	440.85139000000004	29000000	6	36.25	
1800	440.8677	130000	890	0.1625	
1801	441.21369000000004	880000	233	1.1	
1802	441.36800000000005	250000	607	0.3125	
1803	441.4537	79000	1122	0.09875	
1804	441.50285	190000	701	0.2375	
1805	441.64665	4000000	69	5.0	
1806	441.66835	640000	307	0.8	
1807	441.6839	19000	2035	0.02375	
1808	441.845	57000	1312	0.07125	
1809	441.931	16000	2156	0.02	
1810	441.99341	750000	262	0.9375	
1811	442.0951	16000	2157	0.02	
1812	442.15677999999997	4000000	70	5.0	
1813	442.22304	130000	891	0.1625	
1814	442.2473	87000	1082	0.10875	
1815	442.32055999999994	460000	376	0.575	
1816	442.3596	12000	2350	0.015	
1817	442.39099999999996	100000	1001	0.125	
1818	442.45669000000004	210000	653	0.2625	
1819	442.57105	430000	409	0.5375	
1820	442.59978	2900000	95	3.625	
1821	442.72874	400000	437	0.5	
1822	442.85096	2000000	121	2.5	
1823	442.97893	1400000	160	1.75	
1824	443.0499	120000	929	0.15	
1825	443.2884	200000	678	0.25	
1826	443.45945	370000	450	0.4625	
1827	443.5374	94000	1050	0.1175	
1828	443.61325	2700000	99	3.375	
1829	443.6868	4100	2699	0.005125	
1830	443.736	6700	2612	0.008375	
1831	443.78304	4000000	71	5.0	
1832	443.899	35000	1628	0.04375	
1833	444.16798	5200000	60	6.5	
1834	444.33365	300000	531	0.375	
1835	444.42062000000004	4000000	72	5.0	
1836	444.582	13000	2310	0.01625	
1837	444.95724	310000	505	0.3875	
1838	445.08979000000005	240000	617	0.3	
1839	445.1763	34000	1647	0.0425	
1840	445.20050999999995	2500000	105	3.125	
1841	445.2697	100000	1002	0.125	
1842	445.3118	69000	1192	0.08625	
1843	445.4118	56000	1321	0.07	
1844	445.6441	59000	1280	0.07375	
1845	445.64915999999994	73000	1153	0.09125	
1846	445.74699999999996	2600000	101	3.25	
1847	445.77533	500000	347	0.625	
1848	445.8389	90000	1068	0.1125	
1849	445.97532	6300000	48	7.875	
1850	446.02914000000004	13000000	27	16.25	
1851	446.043	150000	826	0.1875	
1852	446.09855	270000	575	0.3375	
1853	446.23574	2500000	106	3.125	
1854	446.3123	8400	2510	0.0105	
1855	446.42215	150000	827	0.1875	
1856	446.4738	160000	784	0.2	
1857	446.5493	160000	785	0.2	
1858	446.68554000000006	290000	546	0.3625	
1859	446.76055999999994	47000	1442	0.05875	
1860	446.80003	500000	348	0.625	
1861	446.8755	170000	751	0.2125	
1862	446.97035	1600000	142	2.0	
1863	447.0041	7700	2555	0.009625	
1864	447.0347	9500	2455	0.011875	
1865	447.0812	19000	2036	0.02375	
1866	447.1321	28000	1783	0.035	
1867	447.1756	32000	1695	0.04	
1868	447.2224	7100	2589	0.008875	
1869	447.3219	46000	1454	0.0575	
1870	447.404	490000	350	0.6125	
1871	447.47140999999993	830000	246	1.0375	
1872	447.5882	100000	1003	0.125	
1873	448.00349000000006	310000	506	0.3875	
1874	448.6241	18000	2070	0.0225	
1875	448.8268	15000	2208	0.01875	
1876	448.88885999999997	1600000	143	2.0	
1877	449.00199999999995	15000	2209	0.01875	
1878	449.0151	17000	2116	0.02125	
1879	449.08088	310000	507	0.3875	
1880	449.1167	240000	618	0.3	
1881	449.1472	35000	1629	0.04375	
1882	449.2289	62000	1255	0.0775	
1883	449.6059	410000	426	0.5125	
1884	449.6768	40000	1549	0.05	
1885	449.68424000000005	270000	576	0.3375	
1886	449.69063	190000	702	0.2375	
1887	449.7385	130000	892	0.1625	
1888	449.7706	16000	2158	0.02	
1889	449.8109	14000	2260	0.0175	
1890	449.9752	21000	1951	0.02625	
1891	450.0778	25000	1842	0.03125	
1892	450.0858	29000	1754	0.03625	
1893	450.12385	91000	1062	0.11375	
1894	450.144	110000	973	0.1375	
1895	450.19538	570000	323	0.7125	
1896	450.2084	46000	1455	0.0575	
1897	450.60809000000006	130000	893	0.1625	
1898	450.6186	61000	1261	0.07625	
1899	450.65734000000003	46000	1456	0.0575	
1900	450.9282	48000	1429	0.06	
1901	451.1431	64000	1233	0.08	
1902	451.3008	15000	2210	0.01875	
1903	451.3606	70000	1184	0.0875	
1904	451.41805999999997	310000	508	0.3875	
1905	451.55481	40000	1550	0.05	
1906	451.6067	7600	2564	0.0095	
1907	452.01599999999996	280000	558	0.35	
1908	452.2179	16000	2159	0.02	
1909	452.42082	580000	315	0.725	
1910	452.51527000000004	160000	786	0.2	
1911	452.79774000000003	130000	894	0.1625	
1912	452.8297	36000	1609	0.045	
1913	452.92852	130000	895	0.1625	
1914	452.95815	310000	509	0.3875	
1915	453.0663	10000	2426	0.0125	
1916	453.07786	130000	896	0.1625	
1917	453.39147	130000	897	0.1625	
1918	453.5583	14000	2261	0.0175	
1919	453.76607	170000	752	0.2125	
1920	454.00068	170000	753	0.2125	
1921	454.1417	17000	2117	0.02125	
1922	454.53925	1500000	153	1.875	
1923	454.6428	29000	1755	0.03625	
1924	454.9034	5100	2670	0.006375	
1925	454.9497	23000	1895	0.02875	
1926	454.96428	330000	488	0.4125	
1927	455.18419000000006	110000	974	0.1375	
1928	455.30507	300000	532	0.375	
1929	455.3201	18000	2071	0.0225	
1930	455.5365	56000	1322	0.07	
1931	455.9712	17000	2118	0.02125	
1932	456.07112	1200000	177	1.5	
1933	456.5547	7900	2546	0.009875	
1934	456.5835	4500	2685	0.005625	
1935	456.7279	12000	2351	0.015	
1936	457.0046	4500	2686	0.005625	
1937	457.0421	270000	577	0.3375	
1938	457.17839000000004	830000	247	1.0375	
1939	457.71738	3500000	76	4.375	
1940	457.76381	66000	1216	0.0825	
1941	457.87287000000003	580000	316	0.725	
1942	457.91885	120000	930	0.15	
1943	458.03968	4400000	64	5.5	
1944	458.0645	47000	1443	0.05875	
1945	458.12199999999996	59000	1281	0.07375	
1946	458.37802	210000	654	0.2625	
1947	458.5973	270000	578	0.3375	
1948	458.63660999999996	5700000	53	7.125	
1949	458.8768	41000	1530	0.05125	
1950	459.11238	300000	533	0.375	
1951	459.12233	710000	274	0.8875	
1952	459.41155999999995	8900000	36	11.125	
1953	459.6227	15000	2211	0.01875	
1954	459.9278	7200	2582	0.009	
1955	460.2954	59000	1282	0.07375	
1956	460.4199	52000	1363	0.065	
1957	460.61470999999995	690000	288	0.8625	
1958	460.72065999999995	68000	1196	0.085	
1959	460.795	120000	931	0.15	
1960	460.9643	120000	932	0.15	
1961	461.0919	94000	1051	0.1175	
1962	461.17324	100000	1004	0.125	
1963	461.26099999999997	8300	2521	0.010375	
1964	461.3907	76000	1141	0.095	
1965	461.6858	30000	1731	0.0375	
1966	461.7818	12000	2352	0.015	
1967	461.8795	47000	1444	0.05875	
1968	461.97769000000005	1600000	144	2.0	
1969	462.0257	8300	2522	0.010375	
1970	462.1245	37000	1590	0.04625	
1971	462.2212	8200	2530	0.01025	
1972	462.4404	340000	470	0.425	
1973	462.4404	340000	471	0.425	
1974	462.4646	31000	1710	0.03875	
1975	462.64873	270000	579	0.3375	
1976	462.789	150000	828	0.1875	
1977	462.815	32000	1696	0.04	
1978	462.93282999999997	190000	703	0.2375	
1979	463.0036	73000	1154	0.09125	
1980	463.0646	7100	2590	0.008875	
1981	463.51739000000003	690000	289	0.8625	
1982	464.0063	340000	472	0.425	
1983	464.0312	16000	2160	0.02	
1984	464.07345	340000	473	0.425	
1985	464.39914000000005	150000	829	0.1875	
1986	464.4051	30000	1732	0.0375	
1987	464.5973	79000	1123	0.09875	
1988	464.63935	690000	290	0.8625	
1989	464.7869	5600	2651	0.007	
1990	464.8887	110000	975	0.1375	
1991	465.2932	17000	2119	0.02125	
1992	465.4651	22000	1919	0.0275	
1993	465.5251	21000	1952	0.02625	
1994	465.655	50000	1396	0.0625	
1995	465.6962	12000	2353	0.015	
1996	465.7077	280000	559	0.35	
1997	465.7772	130000	898	0.1625	
1998	466.2411	14000	2262	0.0175	
1999	466.6132	130000	899	0.1625	
2000	466.93022	54000	1346	0.0675	
2001	466.9558	34000	1648	0.0425	
2002	467.0257	9600	2448	0.012	
2003	467.0482	850000	241	1.0625	
2004	467.366	44000	1485	0.055	
2005	467.3819	27000	1804	0.03375	
2006	467.7593	13000	2311	0.01625	
2007	467.9282	200000	679	0.25	
2008	467.9476	11000	2391	0.01375	
2009	467.9767	99000	1023	0.12375	
2010	468.08865999999995	49000	1413	0.06125	
2011	468.2624	7400	2576	0.00925	
2012	468.2757	21000	1953	0.02625	
2013	468.3682	6900	2600	0.008625	
2014	468.44472	100000	1005	0.125	
2015	468.69167999999996	150000	830	0.1875	
2016	468.8028	6900	2601	0.008625	
2017	469.026	22000	1920	0.0275	
2018	469.7508	130000	900	0.1625	
2019	469.9318	87000	1083	0.10875	
2020	470.50800000000004	150000	831	0.1875	
2021	470.5578	34000	1649	0.0425	
2022	470.6068	36000	1610	0.045	
2023	470.61625999999995	230000	631	0.2875	
2024	470.65645	320000	495	0.4	
2025	470.6728	4200	2698	0.00525	
2026	470.74364	190000	704	0.2375	
2027	470.8195	25000	1843	0.03125	
2028	470.96979000000005	100000	1006	0.125	
2029	471.05515	320000	496	0.4	
2030	471.31300000000005	84000	1104	0.105	
2031	471.3428	48000	1430	0.06	
2032	471.3768	17000	2120	0.02125	
2033	471.41104	260000	590	0.325	
2034	471.5292	60000	1272	0.075	
2035	471.54215	86000	1091	0.1075	
2036	471.5742	7300	2580	0.009125	
2037	471.58910999999995	150000	832	0.1875	
2038	471.61717000000004	66000	1217	0.0825	
2039	471.6635	51000	1381	0.06375	
2040	471.7686	220000	642	0.275	
2041	471.8744	11000	2392	0.01375	
2042	471.89	58000	1298	0.0725	
2043	472.0388	44000	1486	0.055	
2044	472.12489000000005	75000	1143	0.09375	
2045	472.1512	170000	754	0.2125	
2046	472.28679000000005	170000	755	0.2125	
2047	472.3422	17000	2121	0.02125	
2048	472.6361	15000	2212	0.01875	
2049	472.8031	34000	1650	0.0425	
2050	472.8634	19000	2037	0.02375	
2051	472.95350999999994	170000	756	0.2125	
2052	472.983	24000	1869	0.03	
2053	473.03852	110000	976	0.1375	
2054	473.0613	9300	2468	0.011625	
2055	473.1253	20000	1991	0.025	
2056	473.1543	15000	2213	0.01875	
2057	473.1918	88000	1077	0.11	
2058	473.5821	41000	1531	0.05125	
2059	473.7734	33000	1671	0.04125	
2060	473.8204	5100	2671	0.006375	
2061	473.8314	38000	1574	0.0475	
2062	473.911	93000	1057	0.11625	
2063	473.95750999999996	1900000	128	2.375	
2064	473.961	54000	1347	0.0675	
2065	474.1366	29000	1756	0.03625	
2066	474.26205999999996	100000	1007	0.125	
2067	474.3145	4600	2682	0.00575	
2068	474.6622	100000	1008	0.125	
2069	474.7099	23000	1896	0.02875	
2070	474.8508	170000	757	0.2125	
2071	474.8794	10000	2427	0.0125	
2072	474.911	85000	1097	0.10625	
2073	475.0977	190000	705	0.2375	
2074	475.1123	9200	2471	0.0115	
2075	475.1273	64000	1234	0.08	
2076	475.15660999999994	150000	833	0.1875	
2077	475.1842	17000	2122	0.02125	
2078	475.3931	160000	787	0.2	
2079	475.6375	28000	1784	0.035	
2080	475.7346	110000	977	0.1375	
2081	475.74735999999996	270000	580	0.3375	
2082	475.875	120000	933	0.15	
2083	475.9024	14000	2263	0.0175	
2084	475.935	45000	1472	0.05625	
2085	476.2749	4500	2687	0.005625	
2086	476.4013	11000	2393	0.01375	
2087	476.5228	15000	2214	0.01875	
2088	476.55	45000	1473	0.05625	
2089	476.5662	23000	1897	0.02875	
2090	476.6551	16000	2161	0.02	
2091	476.66245	230000	632	0.2875	
2092	477.2582	19000	2038	0.02375	
2093	477.3068	19000	2039	0.02375	
2094	477.45099999999996	51000	1382	0.06375	
2095	477.48400000000004	17000	2123	0.02125	
2096	477.6051	8500	2506	0.010625	
2097	477.63579000000004	310000	510	0.3875	
2098	477.651	210000	655	0.2625	
2099	478.4469	280000	560	0.35	
2100	478.64995	460000	377	0.575	
2101	479.2934	78000	1128	0.0975	
2102	479.3575	3500	2715	0.004375	
2103	479.5098	58000	1299	0.0725	
2104	479.6041	8400	2511	0.0105	
2105	479.69075999999995	540000	333	0.675	
2106	479.796	78000	1129	0.0975	
2107	479.9006	21000	1954	0.02625	
2108	479.9313	14000	2264	0.0175	
2109	479.97765999999996	140000	861	0.175	
2110	480.0497	8900	2490	0.011125	
2111	480.30400000000003	61000	1262	0.07625	
2112	480.75237000000004	530000	336	0.6625	
2113	480.8652	11000	2394	0.01375	
2114	481.90339000000006	51000	1383	0.06375	
2115	482.343	65000	1226	0.08125	
2116	482.74524	920000	224	1.15	
2117	482.8805	15000	2215	0.01875	
2118	483.0683	40000	1551	0.05	
2119	483.1646	1100000	199	1.375	
2120	483.24240999999995	860000	237	1.075	
2121	483.3016	87000	1084	0.10875	
2122	483.3802	29000	1757	0.03625	
2123	484.3	5600	2652	0.007	
2124	484.6607	18000	2072	0.0225	
2125	484.88084000000003	87000	1085	0.10875	
2126	484.8915	21000	1955	0.02625	
2127	484.8915	21000	1956	0.02625	
2128	484.9265	15000	2216	0.01875	
2129	485.14903	2300000	114	2.875	
2130	485.1963	21000	1957	0.02625	
2131	485.5367	13000	2312	0.01625	
2132	485.65507	1100000	200	1.375	
2133	485.7057	9900	2433	0.012375	
2134	485.9115	68000	1197	0.085	
2135	486.26099999999997	130000	901	0.1625	
2136	486.47297000000003	3500000	77	4.375	
2137	486.48345	450000	385	0.5625	
2138	487.0142	12000	2354	0.015	
2139	487.1255	86000	1092	0.1075	
2140	487.2955	20000	1992	0.025	
2141	487.54855	4400000	65	5.5	
2142	488.05474000000004	2380000	109	2.975	
2143	488.15565	5300000	59	6.625	
2144	488.2167	110000	978	0.1375	
2145	488.3159	16000	2162	0.02	
2146	488.5644	93000	1058	0.11625	
2147	488.6807	160000	788	0.2	
2148	489.0073	53000	1353	0.06625	
2149	489.1221	64000	1235	0.08	
2150	489.1578	98000	1029	0.1225	
2151	489.272	50000	1397	0.0625	
2152	489.6359	33000	1672	0.04125	
2153	489.6497	15000	2217	0.01875	
2154	489.7858	7800	2548	0.00975	
2155	489.8441	20000	1993	0.025	
2156	490.0007	11000	2395	0.01375	
2157	490.0421	33000	1673	0.04125	
2158	490.06260999999995	200000	680	0.25	
2159	490.42976	180000	731	0.225	
2160	490.44347999999997	220000	643	0.275	
2161	490.4959	7800	2549	0.00975	
2162	490.6856	15000	2218	0.01875	
2163	490.8694	79000	1124	0.09875	
2164	490.918	58000	1300	0.0725	
2165	491.06699999999995	7700	2556	0.009625	
2166	491.3099	20000	1994	0.025	
2167	491.3975	5000	2672	0.00625	
2168	491.6251	79000	1125	0.09875	
2169	491.898	100000	1009	0.125	
2170	492.0434	9900	2434	0.012375	
2171	492.2354	77000	1134	0.09625	
2172	492.37699999999995	16000	2163	0.02	
2173	492.3878	7200	2583	0.009	
2174	492.56567	450000	386	0.5625	
2175	492.7736	21000	1958	0.02625	
2176	492.782	7200	2584	0.009	
2177	493.20322999999996	190000	706	0.2375	
2178	493.3597	60000	1273	0.075	
2179	493.51	50000	1398	0.0625	
2180	494.2802	60000	1274	0.075	
2181	494.4423	10000	2428	0.0125	
2182	494.5	51000	1384	0.06375	
2183	495.765	130000	902	0.1625	
2184	496.611	77000	1135	0.09625	
2185	498.4544	17000	2124	0.02125	
2186	500.23228	280000	561	0.35	
2187	500.56199999999995	130000	903	0.1625	
2188	500.639	58000	1301	0.0725	
2189	501.0023	11000	2396	0.01375	
2190	501.4624	340000	474	0.425	
2191	502.01884	410000	427	0.5125	
2192	502.4178	8700	2499	0.010875	
2193	503.2951	21000	1959	0.02625	
2194	504.351	61000	1263	0.07625	
2195	504.6839	16000	2164	0.02	
2196	504.7244	32000	1697	0.04	
2197	505.16	100000	1010	0.125	
2198	505.3945	12000	2355	0.015	
2199	506.0243	9600	2449	0.012	
2200	506.1921	4400	2692	0.0055	
2201	506.4114	120000	934	0.15	
2202	507.0638	31000	1711	0.03875	
2203	507.18653	180000	732	0.225	
2204	507.3204	13000	2313	0.01625	
2205	507.5662	56000	1323	0.07	
2206	508.6836	14000	2265	0.0175	
2207	510.5147	130000	904	0.1625	
2208	512.8509	450000	387	0.5625	
2209	513.0518	9700	2446	0.012125	
2210	513.7599	16000	2165	0.02	
2211	513.8406	450000	388	0.5625	
2212	513.953	94000	1052	0.1175	
2213	514.8413	18000	2073	0.0225	
2214	514.87	290000	547	0.3625	
2215	515.34587	1300000	170	1.625	
2216	515.7008	30000	1733	0.0375	
2217	515.9323	170000	758	0.2125	
2218	516.4865	32000	1698	0.04	
2219	516.6154	2500	2749	0.003125	
2220	516.6781	34000	1651	0.0425	
2221	516.9055	4700	2681	0.005875	
2222	516.9923	96000	1039	0.12	
2223	517.2088	33000	1674	0.04125	
2224	517.4518	18000	2074	0.0225	
2225	517.6479	32000	1699	0.04	
2226	517.67657	260000	591	0.325	
2227	517.8522	36000	1611	0.045	
2228	517.9069999999999	31000	1712	0.03875	
2229	517.98	8200	2531	0.01025	
2230	518.0719	36000	1612	0.045	
2231	518.2798	28000	1785	0.035	
2232	518.8849	11000	2397	0.01375	
2233	519.0682	8800	2492	0.011	
2234	519.1992	83000	1108	0.10375	
2235	519.2984	450000	389	0.5625	
2236	519.3591	96000	1040	0.12	
2237	519.4778	310000	511	0.3875	
2238	519.4874	460000	378	0.575	
2239	519.5358	230000	633	0.2875	
2240	520.0329	46000	1457	0.0575	
2241	520.6585	83000	1109	0.10375	
2242	520.7662	42000	1512	0.0525	
2243	521.224	41000	1532	0.05125	
2244	521.3647	46000	1458	0.0575	
2245	521.6568	170000	759	0.2125	
2246	522.364	54000	1348	0.0675	
2247	522.5725	150000	834	0.1875	
2248	522.7561	16000	2166	0.02	
2249	523.3692	140000	862	0.175	
2250	523.3811	12000	2356	0.015	
2251	523.4072	450000	390	0.5625	
2252	523.5395	7700	2557	0.009625	
2253	524.0161	82000	1115	0.1025	
2254	524.08636	450000	391	0.5625	
2255	524.4216	8300	2523	0.010375	
2256	524.6942	7000	2593	0.00875	
2257	524.859	58000	1302	0.0725	
2258	525.6191	14000	2266	0.0175	
2259	525.8142	37000	1591	0.04625	
2260	526.0338	33000	1675	0.04125	
2261	526.094	71000	1175	0.08875	
2262	526.4322	17000	2125	0.02125	
2263	526.612	190000	707	0.2375	
2264	526.7611	9100	2477	0.011375	
2265	527.0393	15000	2219	0.01875	
2266	527.1027	32000	1700	0.04	
2267	527.2658	29000	1758	0.03625	
2268	527.3627	6100	2629	0.007625	
2269	527.5663	20000	1995	0.025	
2270	528.0419	52000	1364	0.065	
2271	528.1886	19000	2040	0.02375	
2272	528.248	30000	1734	0.0375	
2273	528.764	240000	619	0.3	
2274	529.029	120000	935	0.15	
2275	529.1705	9800	2441	0.01225	
2276	529.2762	9100	2478	0.011375	
2277	529.404	160000	789	0.2	
2278	530.05944	1200000	178	1.5	
2279	530.1082	5300	2660	0.006625	
2280	530.2147	16000	2167	0.02	
2281	530.2147	16000	2168	0.02	
2282	531.446	120000	936	0.15	
2283	531.5219999999999	210000	656	0.2625	
2284	531.6867	31000	1713	0.03875	
2285	531.9043	11000	2398	0.01375	
2286	532.8804	51000	1385	0.06375	
2287	532.9284	50000	1399	0.0625	
2288	532.9448	18000	2075	0.0225	
2289	533.0416	100000	1011	0.125	
2290	533.431	51000	1386	0.06375	
2291	533.5563	14000	2267	0.0175	
2292	533.8607	23000	1898	0.02875	
2293	535.34118	160000	790	0.2	
2294	536.026	18000	2076	0.0225	
2295	536.1691	7600	2565	0.0095	
2296	536.3547	13000	2314	0.01625	
2297	537.2627	5200	2666	0.0065	
2298	537.36699	150000	835	0.1875	
2299	538.3413	140000	863	0.175	
2300	538.5132	160000	791	0.2	
2301	538.8286	55000	1336	0.06875	
2302	539.2798	3400	2720	0.00425	
2303	539.3265	40000	1552	0.05	
2304	539.7843	43000	1495	0.05375	
2305	539.8907	4900	2674	0.006125	
2306	540.1922	410000	428	0.5125	
2307	541.5251	580000	317	0.725	
2308	541.8083	120000	937	0.15	
2309	542.1643	19000	2041	0.02375	
2310	542.406	210000	657	0.2625	
2311	542.4282	46000	1459	0.0575	
2312	542.9466	25000	1844	0.03125	
2313	543.7657	46000	1460	0.0575	
2314	544.3216	19000	2042	0.02375	
2315	544.586	55000	1337	0.06875	
2316	545.068	54000	1349	0.0675	
2317	545.4789	16000	2169	0.02	
2318	545.8123	71000	1176	0.08875	
2319	546.7794	25000	1845	0.03125	
2320	547.3602	12000	2357	0.015	
2321	547.4472400000001	580000	318	0.725	
2322	548.2452	9200	2472	0.0115	
2323	548.7225	120000	938	0.15	
2324	548.7913	350000	460	0.4375	
2325	548.9948	120000	939	0.15	
2326	549.1565	7800	2550	0.00975	
2327	549.5651	6100	2630	0.007625	
2328	549.6009	46000	1461	0.0575	
2329	549.62065	470000	369	0.5875	
2330	549.6828	11000	2399	0.01375	
2331	550.082	3300	2724	0.004125	
2332	550.4861	140000	864	0.175	
2333	550.5861	32000	1701	0.04	
2334	550.6633	5300	2661	0.006625	
2335	550.7763	290000	548	0.3625	
2336	550.861	30000	1735	0.0375	
2337	551.1176	59000	1283	0.07375	
2338	551.5065	110000	979	0.1375	
2339	551.5331	21000	1960	0.02625	
2340	551.681	3300	2725	0.004125	
2341	551.7199	70000	1185	0.0875	
2342	552.7622	26000	1824	0.0325	
2343	553.3825	84000	1105	0.105	
2344	553.5344	46000	1462	0.0575	
2345	554.2716	52000	1365	0.065	
2346	554.489	65000	1227	0.08125	
2347	554.5926	140000	865	0.175	
2348	554.7056	410000	429	0.5125	
2349	554.8142	25000	1846	0.03125	
2350	555.745	70000	1186	0.0875	
2351	555.8753	210000	658	0.2625	
2352	555.8753	210000	659	0.2625	
2353	556.0543	36000	1613	0.045	
2354	556.1659999999999	140000	866	0.175	
2355	556.2006	9500	2456	0.011875	
2356	556.5930000000001	65000	1228	0.08125	
2357	557.401	34000	1652	0.0425	
2358	557.651	130000	905	0.1625	
2359	557.84	64000	1236	0.08	
2360	558.2622	28000	1786	0.035	
2361	558.4304599999999	1520000	147	1.9	
2362	558.4497	830000	248	1.0375	
2363	558.474	220000	644	0.275	
2364	558.5989	110000	980	0.1375	
2365	558.6082	22000	1921	0.0275	
2366	558.849	63000	1243	0.07875	
2367	558.96978	3000	2732	0.00375	
2368	559.2415	600000	311	0.75	
2369	559.2959	99000	1024	0.12375	
2370	559.7819999999999	63000	1244	0.07875	
2371	560.1383	120000	940	0.15	
2372	560.4197	140000	867	0.175	
2373	560.4628	51000	1387	0.06375	
2374	560.4935	420000	417	0.525	
2375	560.5414	12000	2358	0.015	
2376	560.5636	21000	1961	0.02625	
2377	561.02	45000	1474	0.05625	
2378	561.6659999999999	45000	1475	0.05625	
2379	561.95104	90000	1069	0.1125	
2380	562.045	11000	2400	0.01375	
2381	562.2077	110000	981	0.1375	
2382	562.4198	56000	1324	0.07	
2383	562.4606	1200000	179	1.5	
2384	562.4873	420000	418	0.525	
2385	562.6017	330000	489	0.4125	
2386	562.763	2400000	108	3.0	
2387	563.2456	100000	1012	0.125	
2388	563.39	42000	1513	0.0525	
2389	563.5505	55000	1338	0.06875	
2390	564.1434	8800	2493	0.011	
2391	564.336	36000	1614	0.045	
2392	564.6108	510000	341	0.6375	
2393	565.15	50000	1400	0.0625	
2394	565.2009	14000	2268	0.0175	
2395	565.203	34000	1653	0.0425	
2396	565.629	87000	1086	0.10875	
2397	565.6881	49000	1414	0.06125	
2398	565.7441	660000	298	0.825	
2399	565.84	9100	2479	0.011375	
2400	566.8363	660000	299	0.825	
2401	567.0848	1900000	129	2.375	
2402	568.3214	85000	1098	0.10625	
2403	568.366	48000	1431	0.06	
2404	568.776	43000	1496	0.05375	
2405	569.113	28000	1787	0.035	
2406	569.8519	7200000	43	9.0	
2407	570.3575	5600000	54	7.0	
2408	570.6983	3500000	78	4.375	
2409	570.7793	25000	1847	0.03125	
2410	570.8952	47000	1445	0.05875	
2411	571.35729	300000	534	0.375	
2412	571.3580000000001	35000	1630	0.04375	
2413	571.6236	37000	1592	0.04625	
2414	572.058	38000	1575	0.0475	
2415	572.5312	30000	1736	0.0375	
2416	572.564	300000	535	0.375	
2417	572.7045	5100000	61	6.375	
2418	572.7655	1000000	208	1.25	
2419	573.1249	1400000	161	1.75	
2420	573.3096	42000	1514	0.0525	
2421	573.3332	30000	1737	0.0375	
2422	573.4014	170000	760	0.2125	
2423	573.7063	1400000	162	1.75	
2424	574.3437	660000	300	0.825	
2425	574.7171	7200	2585	0.009	
2426	574.7705	73000	1155	0.09125	
2427	574.841	41000	1533	0.05125	
2428	574.8727	26000	1825	0.0325	
2429	574.8892	190000	708	0.2375	
2430	575.064	92000	1061	0.115	
2431	575.2742	83000	1110	0.10375	
2432	575.5164	11000	2401	0.01375	
2433	576.141	100000	1013	0.125	
2434	577.002	510000	342	0.6375	
2435	577.0525	29000	1759	0.03625	
2436	577.2411	340000	475	0.425	
2437	577.6454	18000	2077	0.0225	
2438	577.6691	210000	660	0.2625	
2439	578.2601	66000	1218	0.0825	
2440	578.2839	53000	1354	0.06625	
2441	578.349	43000	1497	0.05375	
2442	578.4375	160000	792	0.2	
2443	578.6141	220000	645	0.275	
2444	578.8582	110000	982	0.1375	
2445	579.053	45000	1476	0.05625	
2446	579.2833099999999	160000	793	0.2	
2447	579.7297	14000	2269	0.0175	
2448	579.79878	3600000	75	4.5	
2449	579.891	51000	1388	0.06375	
2450	579.9844	45000	1477	0.05625	
2451	580.7099	130000	906	0.1625	
2452	581.4784	20000	1996	0.025	
2453	581.7079	110000	983	0.1375	
2454	581.7491	120000	941	0.15	
2455	582.3016	13000	2315	0.01625	
2456	582.659	44000	1487	0.055	
2457	583.0674	200000	681	0.25	
2458	583.9017	16000	2170	0.02	
2459	583.936	17000	2126	0.02125	
2460	584.52695	140000	868	0.175	
2461	584.6252	300000	536	0.375	
2462	585.0303	54000	1350	0.0675	
2463	585.375	44000	1488	0.055	
2464	585.7911	12000	2359	0.015	
2465	587.30514	200000	682	0.25	
2466	587.9365	26000	1826	0.0325	
2467	592.457	200000	683	0.25	
2468	596.5476	140000	869	0.175	
2469	597.5336	21000	1962	0.02625	
2470	597.891	140000	870	0.175	
2471	598.0781	120000	942	0.15	
2472	598.46	48000	1432	0.06	
2473	600.2303	170000	761	0.2125	
2474	600.2625	340000	476	0.425	
2475	601.6119	110000	984	0.1375	
2476	602.1748	130000	907	0.1625	
2477	602.4174	28000	1788	0.035	
2478	602.5398	100000	1014	0.125	
2479	603.9726	2800000	97	3.5	
2480	605.4477	97000	1034	0.12125	
2481	605.8143	630000	308	0.7875	
2482	606.33882	490000	351	0.6125	
2483	606.7247	81000	1118	0.10125	
2484	607.7376	15000	2220	0.01875	
2485	608.1441	3000000	92	3.75	
2486	608.2802	5700	2647	0.007125	
2487	608.7493	15000	2221	0.01875	
2488	608.947	10000	2429	0.0125	
2489	609.0209	8100000	39	10.125	
2490	609.052	910	2774	0.0011375	
2491	609.3875	15000	2222	0.01875	
2492	609.7458	45000	1478	0.05625	
2493	610.4653	20000	1997	0.025	
2494	610.6974	160000	794	0.2	
2495	611.0209	11000	2402	0.01375	
2496	611.1651	1800000	131	2.25	
2497	611.30248	66000	1219	0.0825	
2498	611.9528	3800000	74	4.75	
2499	612.8332	130000	908	0.1625	
2500	612.8589	17000	2127	0.02125	
2501	613.5068	240000	620	0.3	
2502	613.5365	1800000	132	2.25	
2503	615.0153	1400000	163	1.75	
2504	615.1494	62000	1256	0.0775	
2505	615.237	20000	1998	0.025	
2506	615.776	3000	2733	0.00375	
2507	617.0357	660000	301	0.825	
2508	617.5577	48000	1433	0.06	
2509	617.74359	740000	265	0.925	
2510	617.891	16000	2171	0.02	
2511	618.1864	44000	1489	0.055	
2512	618.9354	180000	733	0.225	
2513	619.0505	47000	1446	0.05875	
2514	619.9191	3500000	79	4.375	
2515	620.064	1200	2771	0.0015	
2516	620.7293	42000	1515	0.0525	
2517	621.3865	1000000	209	1.25	
2518	621.4748	66000	1220	0.0825	
2519	621.6364	3500000	80	4.375	
2520	621.8299	110000	985	0.1375	
2521	621.9853	29000	1760	0.03625	
2522	622.1218	78000	1130	0.0975	
2523	622.4504	1000000	210	1.25	
2524	623.0454	230000	634	0.2875	
2525	623.0798	3400000	84	4.25	
2526	623.3017	120000	943	0.15	
2527	623.3195	780000	258	0.975	
2528	623.626	150000	836	0.1875	
2529	623.8248	67000	1206	0.08375	
2530	624.0139	430000	410	0.5375	
2531	624.2821	1300000	171	1.625	
2532	624.3107	5500000	55	6.875	
2533	624.3556	120000	944	0.15	
2534	624.5218	270000	581	0.3375	
2535	624.754	53000	1355	0.06625	
2536	625.0771	37000	1593	0.04625	
2537	625.1822	2200000	118	2.75	
2538	625.69	660000	302	0.825	
2539	625.8571	670000	295	0.8375	
2540	626.1232	430000	411	0.5375	
2541	626.6319	660000	303	0.825	
2542	626.8178	22000	1922	0.0275	
2543	626.8272	37000	1594	0.04625	
2544	627.1562	63000	1245	0.07875	
2545	627.3686	110000	986	0.1375	
2546	627.4652	1300000	172	1.625	
2547	628.0976	50000	1401	0.0625	
2548	628.232	81000	1119	0.10125	
2549	628.516	1600000	145	2.0	
2550	628.6896	100000	1015	0.125	
2551	628.7463	29000	1761	0.03625	
2552	629.1889	48000	1434	0.06	
2553	629.2218	39000	1562	0.04875	
2554	629.2824	1600000	146	2.0	
2555	629.4489	35000	1631	0.04375	
2556	629.5102	56000	1325	0.07	
2557	629.523	74000	1148	0.0925	
2558	629.5879	33000	1676	0.04125	
2559	629.649	1300000	173	1.625	
2560	629.8467	34000	1654	0.0425	
2561	630.1299	49000	1415	0.06125	
2562	630.2099099999999	41000	1534	0.05125	
2563	630.4286	110000	987	0.1375	
2564	630.65	3900	2707	0.004875	
2565	630.7816	20000	1999	0.025	
2566	630.9697	170000	762	0.2125	
2567	631.0701	63000	1246	0.07875	
2568	631.1477	99000	1025	0.12375	
2569	631.7271	30000	1738	0.0375	
2570	632.1185	67000	1207	0.08375	
2571	632.3747	23000	1899	0.02875	
2572	632.4645	67000	1208	0.08375	
2573	632.6839	360000	455	0.45	
2574	633.3627	14000	2270	0.0175	
2575	633.5081	6800	2608	0.0085	
2576	633.9082	280000	562	0.35	
2577	634.0135	24000	1870	0.03	
2578	634.3955	25000	1848	0.03125	
2579	634.9473	260000	592	0.325	
2580	635.431	8600	2504	0.01075	
2581	635.5571	68000	1198	0.085	
2582	635.7291	260000	593	0.325	
2583	635.8815	120000	945	0.15	
2584	636.1254	170000	763	0.2125	
2585	636.2158	13000	2316	0.01625	
2586	636.9233	15000	2223	0.01875	
2587	637.45	19000	2043	0.02375	
2588	637.9121	15000	2224	0.01875	
2589	637.9354	110000	988	0.1375	
2590	638.4375	21000	1963	0.02625	
2591	638.5634	22000	1923	0.0275	
2592	638.5634	22000	1924	0.0275	
2593	639.3272	68000	1199	0.085	
2594	639.8042	21000	1964	0.02625	
2595	640.5975	24000	1871	0.03	
2596	640.6999	14000	2271	0.0175	
2597	641.1273	16000	2172	0.02	
2598	641.7036	19000	2044	0.02375	
2599	641.873	13000	2317	0.01625	
2600	642.023	22000	1925	0.0275	
2601	642.3218	18000	2078	0.0225	
2602	642.494	22000	1926	0.0275	
2603	643.0476	180000	734	0.225	
2604	643.1628	120000	946	0.15	
2605	643.3167	71000	1177	0.08875	
2606	643.5154	56000	1326	0.07	
2607	643.8089	2200	2754	0.00275	
2608	644.5134	17000	2128	0.02125	
2609	644.7841	31000	1714	0.03875	
2610	644.7841	31000	1715	0.03875	
2611	645.0957	12000	2360	0.015	
2612	645.2344	440000	401	0.55	
2613	646.404	8300	2524	0.010375	
2614	646.6987	15000	2225	0.01875	
2615	646.97	20000	2000	0.025	
2616	648.052	35000	1632	0.04375	
2617	648.8056	50000	1402	0.0625	
2618	649.068	24000	1872	0.03	
2619	650.4166	340000	477	0.425	
2620	650.8749	44000	1490	0.055	
2621	651.008	1400	2768	0.00175	
2622	651.6722	3700	2711	0.004625	
2623	652.4495	20000	2001	0.025	
2624	653.1421	680000	293	0.85	
2625	654.3502	180000	735	0.225	
2626	655.0017	35000	1633	0.04375	
2627	655.8018	100000	1016	0.125	
2628	656.00872	230000	635	0.2875	
2629	656.436	6500	2618	0.008125	
2630	656.5883	69000	1193	0.08625	
2631	656.8761	13000	2318	0.01625	
2632	657.8968	24000	1873	0.03	
2633	660.5974	310000	512	0.3875	
2634	660.645	6500	2619	0.008125	
2635	660.7828	91000	1063	0.11375	
2636	661.211	6900	2602	0.008625	
2637	661.91631	41000	1535	0.05125	
2638	662.3543	52000	1366	0.065	
2639	662.4844	310000	513	0.3875	
2640	662.5174	16000	2173	0.02	
2641	663.3284	78000	1131	0.0975	
2642	664.3786	67000	1209	0.08375	
2643	665.7635	13000	2319	0.01625	
2644	666.2389	30000	1739	0.0375	
2645	667.7819999999999	21000	1965	0.02625	
2646	669.3687	34000	1655	0.0425	
2647	670.807	50000	1403	0.0625	
2648	673.2037	16000	2174	0.02	
2649	674.3960000000001	2900	2736	0.003625	
2650	674.42	23000	1900	0.02875	
2651	674.8104	9000	2485	0.01125	
2652	675.301	430000	412	0.5375	
2653	676.012	42000	1516	0.0525	
2654	676.6508	330000	490	0.4125	
2655	677.7313	13000	2320	0.01625	
2656	678.4999	260000	594	0.325	
2657	678.6343	63000	1247	0.07875	
2658	680.8071	16000	2175	0.02	
2659	681.24	170000	764	0.2125	
2660	681.913	38000	1576	0.0475	
2661	682.9942	59000	1284	0.07375	
2662	683.2439	99000	1026	0.12375	
2663	683.9579	57000	1313	0.07125	
2664	684.1878	80000	1121	0.1	
2665	687.0874	47000	1447	0.05875	
2666	687.153	42000	1517	0.0525	
2667	688.3944	7900	2547	0.009875	
2668	689.4049	33000	1677	0.04125	
2669	689.572	11000	2403	0.01375	
2670	691.6065	22000	1927	0.0275	
2671	694.095	24000	1874	0.03	
2672	697.3158	11000	2404	0.01375	
2673	697.4521	57000	1314	0.07125	
2674	699.2398	8100	2538	0.010125	
2675	702.6048	100000	1017	0.125	
2676	704.9184	15000	2226	0.01875	
2677	705.3181	2900	2737	0.003625	
2678	707.2513	8400	2512	0.0105	
2679	707.5315	15000	2227	0.01875	
2680	709.1411	18000	2079	0.0225	
2681	710.7956	5700	2648	0.007125	
2682	714.8859	17000	2129	0.02125	
2683	715.1360000000001	32000	1702	0.04	
2684	715.9882	11000	2405	0.01375	
2685	716.665	4100	2700	0.005125	
2686	718.2054	23000	1901	0.02875	
2687	719.4574	3200	2727	0.004	
2688	721.7179	5200	2667	0.0065	
2689	722.841	7400	2577	0.00925	
2690	723.6508	2400	2751	0.003	
2691	725.5616	6100	2631	0.007625	
2692	726.4273	64000	1237	0.08	
2693	727.7893	3100	2731	0.003875	
2694	729.1904	9200	2473	0.0115	
2695	730.6744	25000	1849	0.03125	
2696	731.195	7800	2551	0.00975	
2697	731.4069	5600	2653	0.007	
2698	731.5569	9900	2435	0.012375	
2699	732.1418	41000	1536	0.05125	
2700	732.3163	2900	2738	0.003625	
2701	732.5559	2500	2750	0.003125	
2702	732.7733	4800	2678	0.006	
2703	732.9671	22000	1928	0.0275	
2704	733.8932	210000	661	0.2625	
2705	735.1761	8800	2494	0.011	
2706	735.6512	180000	736	0.225	
2707	735.8623	51000	1389	0.06375	
2708	736.1388	120000	947	0.15	
2709	736.2484	58000	1303	0.0725	
2710	736.3154	120000	948	0.15	
2711	737.493	11000	2406	0.01375	
2712	738.5938	44000	1491	0.055	
2713	738.9135	16000	2176	0.02	
2714	739.5159	16000	2177	0.02	
2715	739.8644	21000	1966	0.02625	
2716	744.6708	14000	2272	0.0175	
2717	748.5899	56000	1327	0.07	
2718	748.808	30000	1740	0.0375	
2719	752.988	7200	2586	0.009	
2720	753.5251	7700	2558	0.009625	
2721	755.2413	9500	2457	0.011875	
2722	755.4574	25000	1850	0.03125	
2723	757.3828	4500	2688	0.005625	
2724	757.8704	49000	1416	0.06125	
2725	759.1192	37000	1595	0.04625	
2726	759.6867	69000	1194	0.08625	
2727	759.83	60000	1275	0.075	
2728	760.4937	5900	2638	0.007375	
2729	761.8676	24000	1875	0.03	
2730	762.178	21000	1967	0.02625	
2731	762.4775	97000	1035	0.12125	
2732	763.803	15000	2228	0.01875	
2733	766.2925	14000	2273	0.0175	
2734	766.8101	1900	2760	0.002375	
2735	767.5404	6900	2603	0.008625	
2736	769.4976	8700	2500	0.010875	
2737	770.1353	25000	1851	0.03125	
2738	770.4783	33000	1678	0.04125	
2739	772.3115	9200	2474	0.0115	
2740	773.0437	5500	2655	0.006875	
2741	773.6627	8500	2507	0.010625	
2742	774.5743	17000	2130	0.02125	
2743	774.9623	13000	2321	0.01625	
2744	775.6567	4400	2693	0.0055	
2745	776.6039999999999	3700	2712	0.004625	
2746	776.8819	18000	2080	0.0225	
2747	776.962	14000	2274	0.0175	
2748	777.955	3700	2713	0.004625	
2749	778.3272	7700	2559	0.009625	
2750	778.7810000000001	3400	2721	0.00425	
2751	779.0613	9800	2442	0.01225	
2752	780.1791	18000	2081	0.0225	
2753	780.4507	18000	2082	0.0225	
2754	782.6874	20000	2002	0.025	
2755	785.118	27000	1805	0.03375	
2756	785.6493	1800	2762	0.00225	
2757	786.1793	8000	2541	0.01	
2758	787.2455	17000	2131	0.02125	
2759	787.3860000000001	7700	2560	0.009625	
2760	787.7148	8200	2532	0.01025	
2761	788.5503	18000	2083	0.0225	
2762	788.8622	5900	2639	0.007375	
2763	789.64	47000	1448	0.05875	
2764	790.0326	16000	2178	0.02	
2765	790.5060000000001	13000	2322	0.01625	
2766	791.309	4300	2697	0.005375	
2767	792.039	8000	2542	0.01	
2768	792.4765	9100	2480	0.011375	
2769	793.1173	15000	2229	0.01875	
2770	793.294	87000	1087	0.10875	
2771	793.6263	24000	1876	0.03	
2772	793.685	790000	256	0.9875	
2773	793.7899	100000	1018	0.125	
2774	793.8748	2600	2744	0.00325	
2775	794.436	4100	2701	0.005125	
2776	794.4648	19000	2045	0.02375	
