	Longueur d'onde (nm)	Intensité	Numéro	Intensité normalisée	Qualité
0	200.41273	3400	88	2.125	
1	200.725	40	610	0.025	
2	200.73725	250	381	0.15625	
3	201.25939	970	212	0.60625	
4	201.3029	130	459	0.08125	
5	201.66483	89	508	0.055625	
6	201.671972	1300	169	0.8125	
7	202.054299	5000	70	3.125	
8	202.16303	150	440	0.09375	
9	202.354127	960	215	0.6	
10	202.46363	600	253	0.375	
11	202.587171	1200	175	0.75	
12	202.6499	100	485	0.0625	
13	202.83159	240	386	0.15	
14	202.85916	740	238	0.4625	
15	203.064453	11000	40	6.875	
16	203.242484	16000	31	10.0	
17	203.29392	290	373	0.18125	
18	203.526743	700	242	0.4375	
19	203.57985	3500	86	2.1875	
20	203.69743	160	431	0.1	
21	203.958642	560	265	0.35	
22	203.970377	1200	176	0.75	
23	204.03346	1800	140	1.125	
24	204.14605	1000	200	0.625	
25	204.74477	240	387	0.15	
26	204.939196	32000	20	20.0	B
27	204.983954	1900	135	1.1875	
28	205.0739	66	544	0.04125	
29	205.48678	170	426	0.10625	
30	205.83942	620	251	0.3875	
31	205.96847	1500	154	0.9375	
32	206.076174	4800	72	3.0	
33	206.279411	7500	52	4.6875	
34	206.693173	2900	101	1.8125	
35	206.751	11000	41	6.875	B+
36	206.86854	410	331	0.25625	
37	207.094439	4100	79	2.5625	
38	207.35962	1000	201	0.625	
39	207.42473	140	448	0.0875	
40	207.62219	440	318	0.275	
41	208.25207	970	213	0.60625	
42	208.334519	2300	117	1.4375	
43	208.459579	23000	25	14.375	B
44	208.82978	1900	136	1.1875	
45	208.848	50	588	0.03125	
46	208.893343	1100	184	0.6875	
47	208.8956	1100	185	0.6875	
48	209.72881	1100	186	0.6875	
49	209.874984	1300	170	0.8125	
50	210.01196	110	472	0.06875	
51	210.1684	4900	71	3.0625	
52	210.334446	36000	19	22.5	B+
53	210.34852	590	257	0.36875	
54	210.950303	2800	104	1.75	
55	210.966379	3900	80	2.4375	
56	211.42304	720	240	0.45	
57	211.988633	1200	177	0.75	
58	212.107	87	509	0.054375	
59	212.257097	1300	171	0.8125	
60	212.858684	13000	34	8.125	B
61	212.863343	42000	16	26.25	B+
62	212.9471	130	460	0.08125	
63	213.10749	150	441	0.09375	
64	213.24727	170	427	0.10625	
65	213.46307	830	227	0.51875	
66	213.516235	3200	96	2.0	
67	214.42123	63000	12	39.375	B
68	214.504	1600	148	1.0	
69	214.70706	760	235	0.475	
70	214.73909	180	417	0.1125	
71	214.8091	28	649	0.0175	
72	215.06567	1300	168	0.8125	
73	215.208992	2400	114	1.5	
74	215.33933	500	289	0.3125	
75	215.35356	2400	113	1.5	
76	215.35684	2000	131	1.25	C+
77	215.91595	160	432	0.1	
78	216.42949	400	339	0.25	
79	216.51407	2500	109	1.5625	
80	216.521133	9300	44	5.8125	B+
81	216.66376	2000	132	1.25	B+
82	216.92711	1000	202	0.625	
83	217.07267	340	356	0.2125	
84	217.468424	89000	6	55.625	B+
85	217.48392	310	369	0.19375	
86	217.6473	250	382	0.15625	
87	218.03229	1500	155	0.9375	
88	218.050314	5200	66	3.25	
89	218.27792	2200	123	1.375	
90	218.83437	260	379	0.1625	
91	219.01803	1600	149	1.0	C+
92	219.07859	300	370	0.1875	
93	219.25064	330	363	0.20625	
94	219.6912	300	371	0.1875	
95	219.970158	2400	115	1.5	
96	220.10082	2600	107	1.625	
97	220.222271	13000	35	8.125	B+
98	220.87801	270	377	0.16875	
99	221.39314	480	295	0.3	
100	221.7345	2200	124	1.375	
101	222.261384	5600	61	3.5	
102	222.45247	470	304	0.29375	
103	222.68442	290	374	0.18125	
104	222.9941	23	670	0.014375	
105	223.015	29	646	0.018125	
106	223.49262	5200	67	3.25	B
107	223.54674	180	418	0.1125	
108	224.03222	380	346	0.2375	
109	224.1215	560	264	0.35	
110	224.49773	6100	59	3.8125	
111	224.6463	170	425	0.10625	
112	224.69427	170	428	0.10625	
113	224.9308	6900	56	4.3125	B+
114	224.98994	4600	75	2.875	B+
115	225.07883	120	467	0.075	
116	225.71283	1000	197	0.625	
117	226.25437	110	473	0.06875	
118	226.72445	210	405	0.13125	
119	226.88384	7100	54	4.4375	
120	227.11694	48	590	0.03	
121	227.15067	140	449	0.0875	
122	227.40682	700	243	0.4375	
123	227.438086	22000	26	13.75	B+
124	227.48409	5100	68	3.1875	B+
125	227.64229	1600	150	1.0	
126	227.68553	1300	172	0.8125	
127	227.79574	180	419	0.1125	
128	228.04916	1300	173	0.8125	
129	228.12798	110	474	0.06875	
130	228.92765	6900	57	4.3125	B+
131	229.15144	69	535	0.043125	
132	229.239853	25000	24	15.625	B+
133	229.57435	1700	143	1.0625	
134	229.63797	58	566	0.03625	
135	229.8368	800	230	0.5	
136	229.87859	710	241	0.44375	
137	230.038	120	466	0.075	
138	230.32065	2100	128	1.3125	
139	230.534	30	643	0.01875	
140	230.80437	9500	43	5.9375	
141	231.55024	3800	82	2.375	
142	231.82964	15000	32	9.375	B+
143	232.06133	67	539	0.041875	
144	232.61053	2300	118	1.4375	
145	233.09705	850	226	0.53125	
146	233.52555	270	378	0.16875	
147	234.01805	5600	62	3.5	
148	234.07195	100	486	0.0625	
149	234.33952	2500	110	1.5625	C+
150	234.67368	210	406	0.13125	
151	234.716	950	217	0.59375	
152	235.30213	99	495	0.061875	
153	235.71047	17000	30	10.625	B+
154	235.75804	990	209	0.61875	
155	236.0448	18	690	0.01125	
156	236.82781	5400	65	3.375	C
157	237.79606	1200	178	0.75	
158	237.99758	94	502	0.05875	
159	238.2033	1700	144	1.0625	
160	238.36432	3000	98	1.875	
161	238.68089	2800	105	1.75	B+
162	238.73456	63	552	0.039375	
163	238.95354	9100	46	5.6875	B+
164	239.1759	66	545	0.04125	
165	239.61705	1500	156	0.9375	
166	240.10033	1200	179	0.75	
167	240.18773	2100	129	1.3125	
168	240.30918	4200	77	2.625	B
169	240.65926	180	420	0.1125	
170	241.3046	210	404	0.13125	
171	241.80583	3700	83	2.3125	
172	242.64352	230	392	0.14375	
173	242.80333	1600	151	1.0	
174	242.82031	2300	119	1.4375	
175	242.83122	110	475	0.06875	
176	242.90969	900	223	0.5625	
177	243.66887	8500	48	5.3125	B+
178	243.9421	36	622	0.0225	
179	244.006119	41000	17	25.625	
180	244.4499	26	657	0.01625	
181	244.6131	34	630	0.02125	
182	245.0967	2600	106	1.625	B+
183	246.0049	38	615	0.02375	
184	246.74011	19000	29	11.875	B+
185	246.74824	3500	85	2.1875	
186	246.9408	28	650	0.0175	
187	247.10073	1500	157	0.9375	
188	247.72734	42	605	0.02625	
189	248.33675	1100	187	0.6875	B+
190	248.59312	67	540	0.041875	
191	248.71692	65000	10	40.625	
192	248.87321	920	222	0.575	
193	249.01265	9200	45	5.75	
194	249.5628	37	617	0.023125	
195	249.58126	7100	55	4.4375	C
196	249.70968	64	549	0.04	
197	249.849919	20000	28	12.5	B+
198	250.081	34	631	0.02125	
199	250.40404	390	344	0.24375	
200	250.59225	1100	188	0.6875	
201	250.84973	2500	111	1.5625	B+
202	251.40705	1100	189	0.6875	
203	251.50305	1600	152	1.0	
204	251.5577	13000	36	8.125	B+
205	251.71843	100	487	0.0625	
206	252.02494	140	450	0.0875	
207	252.43065	2900	102	1.8125	B+
208	252.941	550	267	0.34375	
209	253.59677	220	397	0.1375	
210	253.64932	990	210	0.61875	
211	253.825	40	611	0.025	
212	253.92067	10000	42	6.25	E
213	254.13494	110	476	0.06875	
214	254.64674	44	601	0.0275	
215	254.94688	760	236	0.475	
216	255.22488	1100	190	0.6875	
217	255.9449	11	728	0.006875	
218	257.44904	140	451	0.0875	
219	257.5472	13	710	0.008125	
220	258.77936	48	591	0.03	
221	259.59986	1000	203	0.625	
222	259.8302	54	578	0.03375	
223	259.95423	55	575	0.034375	
224	259.99043	44	602	0.0275	
225	260.2088	15	700	0.009375	
226	260.31374	2900	103	1.8125	
227	260.6021	53	582	0.033125	
228	261.2499	9	740	0.005625	
229	261.3092	15	701	0.009375	
230	261.4598	55	576	0.034375	
231	261.4728	13	711	0.008125	
232	261.9535	130	458	0.08125	
233	261.95674	1500	158	0.9375	B
234	262.73883	340	357	0.2125	
235	262.802681	58000	14	36.25	B+
236	263.211	9	741	0.005625	
237	263.93454	5500	64	3.4375	B
238	264.53682	400	340	0.25	
239	264.68804	27000	22	16.875	B+
240	265.085269	90000	5	56.25	B+
241	265.81694	460	310	0.2875	C
242	265.86943	600	254	0.375	
243	265.945075	160000	2	100.0	B+
244	266.4098	12	718	0.0075	
245	266.46346	180	421	0.1125	
246	267.457	2600	108	1.625	B
247	267.71477	15000	33	9.375	B+
248	268.6911	16	697	0.01	
249	268.8278	58	567	0.03625	
250	269.84248	5900	60	3.6875	B+
251	270.239886	65000	11	40.625	B+
252	270.589342	47000	15	29.375	B+
253	271.31254	1500	159	0.9375	
254	271.4529	25	660	0.015625	
255	271.57683	150	439	0.09375	
256	271.90308	37000	18	23.125	B+
257	272.537	65	548	0.040625	
258	272.99123	3600	84	2.25	B
259	273.36855	770	234	0.48125	
260	273.39567	79000	9	49.375	B+
261	273.4493	940	219	0.5875	
262	273.6749	17	693	0.010625	
263	273.7782	21	677	0.013125	
264	273.84831	1600	153	1.0	C
265	274.4239	17	694	0.010625	
266	274.48285	190	411	0.11875	
267	274.76023	1400	163	0.875	
268	275.37613	330	364	0.20625	C+
269	275.38531	2200	125	1.375	B+
270	275.49122	8200	51	5.125	B+
271	275.7691	53	583	0.033125	
272	276.66534	340	358	0.2125	
273	276.98332	2000	133	1.25	B
274	277.165963	27000	23	16.875	B+
275	277.28253	480	296	0.3	C+
276	277.32372	1400	164	0.875	
277	277.35903	180	422	0.1125	
278	277.39918	1200	180	0.75	C+
279	277.41959	150	442	0.09375	
280	279.32647	1500	160	0.9375	
281	279.36347	160	433	0.1	
282	280.32357	4800	73	3.0	B
283	280.85026	340	359	0.2125	
284	281.2979	1000	199	0.625	
285	281.8245	8500	49	5.3125	B
286	281.86341	100	488	0.0625	
287	283.029323	85000	7	53.125	B+
288	283.3369	80	526	0.05	
289	283.47107	4200	78	2.625	B+
290	283.72284	99	496	0.061875	
291	284.405	22	674	0.01375	
292	284.9149	24	663	0.015	
293	285.30972	600	255	0.375	
294	285.33729	130	461	0.08125	
295	287.04651	460	311	0.2875	
296	287.3548	11	729	0.006875	
297	288.6281	10	735	0.00625	
298	288.81924	580	260	0.3625	C+
299	289.0871	27	654	0.016875	
300	289.32175	820	228	0.5125	
301	289.38626	29000	21	18.125	B+
302	289.78715	13000	37	8.125	B+
303	290.1141	38	616	0.02375	
304	290.1698	9	742	0.005625	
305	290.58974	1700	142	1.0625	
306	290.7896	190	412	0.11875	
307	291.04418	20	684	0.0125	
308	291.22515	3300	92	2.0625	C+
309	291.27692	85	516	0.053125	
310	291.32445	510	285	0.31875	
311	291.35386	3400	89	2.125	C+
312	291.93402	1200	181	0.75	C
313	292.12203	110	477	0.06875	
314	292.13792	1400	165	0.875	C+
315	292.6911	51	586	0.031875	
316	292.81044	250	383	0.15625	
317	292.979131	84000	8	52.5	B+
318	293.07847	600	256	0.375	
319	293.6611	67	541	0.041875	
320	293.88101	810	229	0.50625	
321	294.0388	18	691	0.01125	
322	294.27514	1100	191	0.6875	
323	294.47525	950	218	0.59375	C+
324	295.0321	7	751	0.004375	
325	295.90936	530	278	0.33125	
326	296.07494	1400	166	0.875	
327	297.8051	41	608	0.025625	
328	298.37465	110	478	0.06875	
329	298.9794	130	462	0.08125	
330	299.47722	100	489	0.0625	
331	299.79622	100000	4	62.5	B+
332	300.22641	7500	53	4.6875	B+
333	300.32488	87	510	0.054375	
334	300.4088	15	702	0.009375	
335	300.4168	35	627	0.021875	
336	301.2379	67	542	0.041875	
337	301.5368	37	618	0.023125	
338	301.78714	1000	204	0.625	C
339	302.28401	170	429	0.10625	
340	302.42929	55	577	0.034375	
341	302.5049	49	589	0.030625	
342	302.55458	90	507	0.05625	
343	302.63266	81	524	0.050625	
344	303.64425	3300	93	2.0625	B+
345	304.12085	92	503	0.0575	
346	304.26318	130000	3	81.25	B+
347	305.0972	22	675	0.01375	
348	305.53115	120	468	0.075	
349	305.96366	530	279	0.33125	C+
350	306.1821	31	640	0.019375	
351	306.471263	160000	1	100.0	B+
352	307.0229	68	536	0.0425	
353	307.19336	3400	90	2.125	C+
354	307.4799	62	554	0.03875	
355	307.9565	240	388	0.15	
356	308.4439	8	747	0.005	
357	308.481	51	587	0.031875	
358	310.00252	3300	94	2.0625	B
359	310.09598	220	398	0.1375	
360	310.36	25	661	0.015625	
361	311.0301	5	759	0.003125	
362	311.98001	190	413	0.11875	
363	313.36714	23	671	0.014375	
364	313.5302	9	743	0.005625	
365	313.9387	12000	39	7.5	B+
366	314.16559	190	414	0.11875	C+
367	315.2568	5	760	0.003125	
368	315.65625	4500	76	2.8125	B
369	316.31	4	768	0.0025	
370	317.4823	54	579	0.03375	
371	319.1428	27	653	0.016875	
372	319.1751	7	752	0.004375	
373	319.25031	100	490	0.0625	
374	319.9058	75	530	0.046875	
375	320.0009	12	719	0.0075	
376	320.07097	5100	69	3.1875	C+
377	320.40364	9100	47	5.6875	B
378	320.56023	210	407	0.13125	
379	320.6441	5	761	0.003125	
380	320.743	12	720	0.0075	
381	321.23775	160	434	0.1	
382	322.3751	12	721	0.0075	
383	322.5928	12	722	0.0075	
384	322.71645	100	491	0.0625	
385	323.02837	1300	174	0.8125	C+
386	323.34167	780	233	0.4875	B
387	324.01957	490	291	0.30625	
388	324.2962	4	769	0.0025	
389	324.84907	19	687	0.011875	
390	325.082	14	707	0.00875	
391	325.19787	3200	97	2.0	B+
392	325.318	13	712	0.008125	
393	325.59088	4800	74	3.0	B
394	325.6529	62	555	0.03875	
395	325.97308	540	272	0.3375	C+
396	326.0139	23	672	0.014375	
397	326.10683	86	514	0.05375	C
398	326.16887	540	273	0.3375	
399	326.3578	60	560	0.0375	
400	326.8417	970	214	0.60625	
401	327.2778	100	492	0.0625	
402	328.0831	8	748	0.005	
403	328.1967	1100	192	0.6875	
404	328.32046	330	365	0.20625	C+
405	328.33086	440	319	0.275	
406	329.02196	2200	126	1.375	C+
407	329.02948	16	698	0.01	
408	329.364	13	713	0.008125	
409	329.9912	47	592	0.029375	
410	330.18596	22000	27	13.75	B+
411	330.6142	5	762	0.003125	
412	330.7772	13	714	0.008125	
413	331.17986	87	511	0.054375	
414	331.2482	220	395	0.1375	
415	331.50419	13000	38	8.125	B+
416	332.37881	1000	205	0.625	
417	332.57	140	452	0.0875	
418	333.58163	60	561	0.0375	
419	333.814	140	453	0.0875	
420	334.38961	750	237	0.46875	B
421	336.69903	450	315	0.28125	C+
422	340.6518	110	479	0.06875	
423	340.81308	59000	13	36.875	B+
424	341.44564	45	596	0.028125	
425	341.70828	130	463	0.08125	
426	342.03407	9	744	0.005625	
427	342.47283	57	570	0.035625	
428	342.55299	21	678	0.013125	
429	342.67263	70	533	0.04375	
430	342.79268	1700	145	1.0625	C+
431	343.18551	100	493	0.0625	
432	343.654	3	777	0.001875	
433	344.8344	140	446	0.0875	
434	345.94946	33	633	0.020625	
435	346.3938	230	390	0.14375	
436	347.676	340	360	0.2125	C+
437	348.11429	96	498	0.06	
438	348.34231	690	245	0.43125	C+
439	348.52641	3500	87	2.1875	C+
440	349.09998	180	416	0.1125	
441	349.75624	36	623	0.0225	
442	349.81646	85	515	0.053125	
443	350.14968	36	624	0.0225	
444	350.56874	83	522	0.051875	
445	350.66335	21	679	0.013125	
446	351.4448	92	504	0.0575	
447	351.47134	530	280	0.33125	C+
448	351.6182	17	695	0.010625	
449	352.35752	95	499	0.059375	
450	352.85348	480	297	0.3	
451	353.17516	44	600	0.0275	C
452	354.38873	20	685	0.0125	
453	354.50094	21	680	0.013125	
454	354.88143	24	664	0.015	
455	355.01696	31	641	0.019375	
456	355.9871	220	394	0.1375	
457	356.35851	21	681	0.013125	
458	356.46881	60	562	0.0375	
459	356.49264	24	665	0.015	
460	356.8316	330	362	0.20625	
461	357.33068	37	619	0.023125	
462	357.78151	46	594	0.02875	
463	358.74045	190	415	0.11875	B
464	358.91981	24	666	0.015	
465	359.19077	9	745	0.005625	
466	359.65531	10	736	0.00625	
467	359.72858	71	532	0.044375	
468	359.75403	15	703	0.009375	
469	360.14005	7	753	0.004375	
470	360.41641	10	737	0.00625	
471	360.4759	4	770	0.0025	
472	360.67395	24	667	0.015	
473	361.09063	66	546	0.04125	C
474	361.5171	3	778	0.001875	
475	361.5279	10	738	0.00625	
476	361.98007	42	606	0.02625	
477	362.16546	79	527	0.049375	C
478	362.24709	62	556	0.03875	
479	362.81107	2500	112	1.5625	B
480	362.8866	550	268	0.34375	
481	363.0118	42	607	0.02625	
482	363.6012	6	757	0.00375	
483	363.65559	21	682	0.013125	
484	363.69875	7	754	0.004375	
485	363.71933	110	480	0.06875	
486	363.87879	930	220	0.58125	
487	364.31667	1400	167	0.875	
488	365.0768	16	699	0.01	
489	365.22552	45	597	0.028125	
490	365.39828	95	501	0.059375	
491	365.94131	81	525	0.050625	
492	366.125	4	771	0.0025	
493	366.3092	310	368	0.19375	C+
494	366.35492	29	647	0.018125	
495	366.83939	110	481	0.06875	
496	367.1999	590	258	0.36875	C+
497	367.2845	19	688	0.011875	
498	367.40449	460	308	0.2875	C+
499	367.4938	95	500	0.059375	
500	367.5523	84	519	0.0525	
501	368.03319	15	704	0.009375	
502	368.0452	56	572	0.035	
503	368.10798	190	410	0.11875	C+
504	368.29727	380	347	0.2375	
505	368.74152	700	244	0.4375	
506	369.1981	5	763	0.003125	
507	369.8996	23	673	0.014375	
508	369.99126	530	276	0.33125	C+
509	370.65217	540	274	0.3375	
510	371.65006	36	621	0.0225	
511	372.4721	4	772	0.0025	
512	372.5849	7	755	0.004375	
513	373.18721	21	676	0.013125	
514	373.56012	140	447	0.0875	
515	373.91037	26	656	0.01625	
516	374.11392	19	689	0.011875	
517	374.2451	4	773	0.0025	
518	374.7528	8	749	0.005	
519	374.87156	39	613	0.024375	
520	375.44527	78	528	0.04875	
521	376.2401	11	730	0.006875	
522	376.98806	20	686	0.0125	
523	377.64251	56	573	0.035	
524	378.49106	40	609	0.025	
525	378.95705	14	708	0.00875	
526	379.1589	13	715	0.008125	
527	379.8742	4	774	0.0025	
528	380.10723	440	317	0.275	C+
529	380.23589	31	642	0.019375	
530	380.30226	35	628	0.021875	
531	380.52973	11	731	0.006875	
532	380.81298	57	571	0.035625	
533	381.50673	59	563	0.036875	C
534	381.86874	8300	50	5.1875	B+
535	383.7288	8	750	0.005	
536	383.86561	14	709	0.00875	
537	386.32223	84	520	0.0525	C
538	386.57875	11	732	0.006875	
539	386.84209	470	305	0.29375	
540	387.5715	470	306	0.29375	
541	387.69749	21	683	0.013125	
542	388.08488	32	636	0.02	
543	388.23976	45	598	0.028125	
544	388.52172	26	658	0.01625	
545	389.87316	500	288	0.3125	
546	390.07228	1100	183	0.6875	
547	390.37085	150	443	0.09375	
548	390.43823	390	345	0.24375	
549	390.62788	120	469	0.075	
550	391.08955	430	324	0.26875	
551	392.29559	1900	134	1.1875	
552	392.52718	77	529	0.048125	
553	392.53359	480	298	0.3	
554	392.63831	37	620	0.023125	
555	394.15998	47	593	0.029375	
556	394.4109	4	775	0.0025	
557	394.8385	470	300	0.29375	C+
558	395.36375	40	612	0.025	C
559	396.3041	4	776	0.0025	
560	396.6357	3400	91	2.125	C+
561	398.0601	33	634	0.020625	
562	398.4939	7	756	0.004375	
563	399.65674	410	332	0.25625	C+
564	400.18	5	764	0.003125	
565	400.24834	150	444	0.09375	
566	400.9095	66	547	0.04125	
567	401.8209	12	723	0.0075	
568	401.961	11	733	0.006875	
569	402.795	12	724	0.0075	
570	403.12981	56	574	0.035	
571	405.47658	120	470	0.075	
572	406.036	17	696	0.010625	
573	406.1158	5	765	0.003125	
574	406.5918	620	250	0.3875	
575	406.609	13	716	0.008125	
576	407.03844	54	580	0.03375	
577	407.21002	6	758	0.00375	
578	408.14669	410	330	0.25625	
579	408.47775	87	512	0.054375	
580	408.73313	84	521	0.0525	
581	409.00628	160	435	0.1	
582	409.22522	580	261	0.3625	
583	409.2922	12	725	0.0075	
584	409.4362	15	705	0.009375	
585	409.5537	87	513	0.054375	
586	409.7478	53	584	0.033125	
587	410.7602	5	766	0.003125	
588	410.9048	18	692	0.01125	
589	410.9612	15	706	0.009375	
590	411.212	10	739	0.00625	
591	411.86745	3000	99	1.875	C+
592	412.7002	5	767	0.003125	
593	413.5181	26	659	0.01625	
594	413.7472	99	497	0.061875	
595	413.9752	9	746	0.005625	
596	414.3612	32	637	0.02	
597	414.5029	240	389	0.15	
598	415.2841	36	625	0.0225	
599	415.4841	11	734	0.006875	
600	416.45491	3300	95	2.0625	C+
601	416.73	220	399	0.1375	
602	418.4748	36	626	0.0225	
603	419.24231	1700	146	1.0625	C+
604	420.12102	470	307	0.29375	
605	421.3088	280	376	0.175	
606	421.3771	140	454	0.0875	
607	421.502	54	581	0.03375	
608	421.8521	63	553	0.039375	
609	423.1091	110	482	0.06875	
610	423.737	12	726	0.0075	
611	424.0718	13	717	0.008125	
612	424.2859	12	727	0.0075	
613	424.599	34	632	0.02125	
614	424.76735	220	400	0.1375	
615	425.1171	360	353	0.225	
616	425.9931	290	375	0.18125	
617	426.35022	360	354	0.225	
618	426.5159	60	559	0.0375	
619	426.9249	160	436	0.1	
620	427.1202	130	464	0.08125	
621	427.3922	490	292	0.30625	
622	428.17393	64	550	0.04	
623	428.80507	680	247	0.425	C
624	429.08991	460	312	0.2875	
625	429.4919	68	537	0.0425	
626	430.127	43	604	0.026875	
627	430.24207	46	595	0.02875	C
628	430.9176	410	333	0.25625	
629	432.1331	32	638	0.02	
630	432.4992	74	531	0.04625	
631	432.70533	2300	120	1.4375	
632	433.46451	140	455	0.0875	
633	434.25757	24	668	0.015	
634	434.36373	24	669	0.015	
635	435.83276	250	384	0.15625	
636	436.44468	27	655	0.016875	
637	437.1007	25	662	0.015625	
638	439.18221	490	293	0.30625	C
639	441.14023	220	401	0.1375	
640	441.42509	29	648	0.018125	
641	443.0188	5500	63	3.4375	
642	443.72732	450	316	0.28125	
643	444.25479	2400	116	1.5	C+
644	444.5543	300	372	0.1875	C+
645	445.49294	28	651	0.0175	
646	445.86208	110	483	0.06875	
647	446.5135	28	652	0.0175	
648	447.34499	230	393	0.14375	
649	448.46867	520	282	0.325	
650	448.67551	59	564	0.036875	
651	449.8664	32	635	0.02	
652	449.875	1100	193	0.6875	
653	449.89233	35	629	0.021875	C
654	450.85835	30	644	0.01875	
655	451.12459	170	430	0.10625	
656	451.56292	30	645	0.01875	
657	452.08896	420	328	0.2625	
658	452.29923	550	269	0.34375	
659	454.78812	260	380	0.1625	
660	455.19409	64	551	0.04	
661	455.24121	730	239	0.45625	
662	455.45967	150	445	0.09375	C
663	457.62607	32	639	0.02	
664	457.74135	39	614	0.024375	
665	458.0537	400	338	0.25	
666	458.0667	67	543	0.041875	
667	464.08161	140	456	0.0875	
668	468.40934	45	599	0.028125	C+
669	473.7572	44	603	0.0275	
670	473.97499	82	523	0.05125	
671	474.78604	160	437	0.1	
672	476.80804	85	517	0.053125	
673	477.2309	85	518	0.053125	
674	483.12159	100	494	0.0625	C
675	483.19575	91	505	0.056875	
676	485.39182	380	348	0.2375	
677	486.23883	91	506	0.056875	
678	487.9543	430	323	0.26875	
679	496.7701	53	585	0.033125	
680	498.0383	210	408	0.13125	
681	498.6837	120	471	0.075	
682	499.7973	220	402	0.1375	
683	500.2634	130	465	0.08125	
684	503.354	110	484	0.06875	C+
685	503.8522	58	568	0.03625	
686	504.3946	230	391	0.14375	
687	504.4054	420	327	0.2625	C+
688	505.5347	58	569	0.03625	
689	505.9481	1900	137	1.1875	
690	507.5735	59	565	0.036875	
691	507.7768	61	557	0.038125	
692	508.2338	61	558	0.038125	
693	516.4945	68	538	0.0425	
694	519.3892	70	534	0.04375	
695	522.7646	2100	130	1.3125	C+
696	526.0845	180	423	0.1125	
697	528.6097	320	366	0.2	
698	530.1013	3900	81	2.4375	
699	532.86	140	457	0.0875	
700	536.8983	960	216	0.6	C
701	538.7866	370	351	0.23125	
702	539.0778	1100	194	0.6875	E
703	547.5765	1900	138	1.1875	
704	547.848	1500	161	0.9375	
705	551.4084	220	396	0.1375	
706	576.3564	510	286	0.31875	
707	584.0117	1800	141	1.125	C
708	584.4807	1000	206	0.625	
709	586.0831	350	355	0.21875	
710	602.4232	410	334	0.25625	
711	602.602	860	225	0.5375	E
712	628.3483	570	263	0.35625	
713	631.8361	930	221	0.58125	
714	632.6582	1100	195	0.6875	
715	633.288	210	409	0.13125	
716	652.3433	3000	100	1.875	E
717	664.8305	550	270	0.34375	
718	665.5539	160	438	0.1	
719	671.0401	2200	127	1.375	
720	676.0003	6500	58	4.0625	E
721	682.0197	440	320	0.275	
722	683.8065	560	266	0.35	
723	684.2596	1500	162	0.9375	
724	689.6715	590	259	0.36875	
725	690.8806	430	325	0.26875	
726	695.6834	340	361	0.2125	
727	695.7497	800	231	0.5	
728	697.5684	250	385	0.15625	
729	698.981	680	246	0.425	
730	701.2016	400	341	0.25	
731	703.0063	540	275	0.3375	
732	705.6263	400	342	0.25	
733	706.5553	320	367	0.2	
734	707.8074	580	262	0.3625	
735	709.4766	2300	121	1.4375	
736	711.3722	2300	122	1.4375	C
737	712.2902	480	299	0.3	
738	712.5034	500	290	0.3125	
739	713.1621	650	249	0.40625	
740	717.9931	430	326	0.26875	
741	721.7552	1600	147	1.0	
742	748.601	520	283	0.325	
743	760.723	510	287	0.31875	
744	761.4813	490	294	0.30625	
745	761.815	990	208	0.61875	
746	762.618	450	313	0.28125	
747	763.763	530	277	0.33125	
748	773.858	430	321	0.26875	
749	774.9744	890	224	0.55625	
750	778.051	1000	198	0.625	
751	778.6753	1100	196	0.6875	
752	779.019	460	309	0.2875	
753	783.04	540	271	0.3375	
754	791.125	660	248	0.4125	
755	797.7335	980	211	0.6125	
756	809.3842	410	335	0.25625	
757	820.4453	1000	207	0.625	
758	822.4763	1900	139	1.1875	
759	822.7532	790	232	0.49375	
760	825.9016	520	284	0.325	
761	830.1814	620	252	0.3875	
762	842.8456	420	329	0.2625	
763	845.635	400	336	0.25	
764	861.991	430	322	0.26875	
765	872.298	450	314	0.28125	
766	876.2462	1200	182	0.75	
767	880.46	380	349	0.2375	
768	898.1865	220	403	0.1375	
769	900.406	470	303	0.29375	
770	901.239	390	343	0.24375	
771	910.0868	370	352	0.23125	
772	912.803	370	350	0.23125	
773	920.1809	530	281	0.33125	
774	929.13	400	337	0.25	
775	934.0157	180	424	0.1125	
776	1000.595	470	301	0.29375	
777	1000.595	470	302	0.29375	
