	Longueur d'onde (nm)	Intensité	Numéro	Intensité normalisée	Qualité
0	211.9406	15	597	0.075	
1	215.6272	30	574	0.15	
2	218.5394	30	575	0.15	
3	218.9055	30	576	0.15	
4	219.3347	40	551	0.2	
5	228.2121	10	598	0.05	
6	228.2713	10	599	0.05	
7	228.5451	50	541	0.25	
8	229.808	100	415	0.5	
9	241.6217	30	577	0.15	
10	242.3228	50	542	0.25	
11	242.4538	20	590	0.1	
12	243.5829	20	591	0.1	
13	243.6994	10	600	0.05	
14	246.3694	80	483	0.4	
15	246.5086	20	592	0.1	
16	246.6873	30	578	0.15	
17	247.5107	20	593	0.1	
18	248.0699	50	543	0.25	
19	248.3224	50	544	0.25	
20	248.6496	20	594	0.1	
21	249.2721	25	587	0.125	
22	249.2721	25	588	0.125	
23	249.3432	20	595	0.1	
24	251.0167	30	579	0.15	
25	257.8791	300	242	1.5	
26	258.9861	200	295	1.0	
27	259.0189	20	596	0.1	
28	259.2816	100	416	0.5	
29	260.8855	500	169	2.5	
30	261.4233	1500	72	7.5	
31	261.5873	1000	78	5.0	
32	261.8279	30	580	0.15	
33	263.6357	80	484	0.4	
34	264.1255	30	581	0.15	
35	264.2372	100	417	0.5	
36	264.9207	300	243	1.5	
37	265.3566	30	582	0.15	
38	265.4306	100	418	0.5	
39	266.0884	120	413	0.6	
40	266.2296	100	419	0.5	
41	268.3139	60	515	0.3	
42	268.3886	80	485	0.4	
43	269.3112	80	486	0.4	
44	269.6636	50	545	0.25	
45	270.2271	70	510	0.35	
46	270.8785	1000	79	5.0	
47	271.5205	30	583	0.15	
48	272.355	30	584	0.15	
49	272.6691	1000	80	5.0	
50	272.8471	30	585	0.15	
51	273.0529	500	170	2.5	
52	273.2872	300	244	1.5	
53	273.6231	150	386	0.75	
54	273.7973	100	420	0.5	
55	275.5761	100	421	0.5	
56	276.2134	100	422	0.5	
57	276.2337	200	296	1.0	
58	276.5947	60	516	0.3	
59	276.5947	60	517	0.3	
60	276.6886	500	171	2.5	
61	277.8908	150	387	0.75	
62	278.1222	25	589	0.125	
63	278.2052	1000	81	5.0	
64	278.5586	500	172	2.5	
65	278.8888	40	552	0.2	
66	278.9246	500	173	2.5	
67	279.4526	100	423	0.5	
68	279.565	80	487	0.4	
69	280.281	1000	82	5.0	
70	280.3018	150	388	0.75	
71	280.8356	500	174	2.5	
72	281.486	30	586	0.15	
73	281.946	40	553	0.2	
74	282.8042	200	297	1.0	
75	284.5044	60	518	0.3	
76	284.9196	60	519	0.3	
77	285.0956	150	389	0.75	
78	285.7128	500	175	2.5	
79	285.911	2000	47	10.0	
80	286.4486	500	176	2.5	
81	286.8087	100	424	0.5	
82	288.7734	1000	83	5.0	
83	288.8458	100	425	0.5	
84	289.316	200	298	1.0	
85	289.3448	150	390	0.75	
86	289.4322	200	299	1.0	
87	289.634	1000	84	5.0	
88	289.634	1000	85	5.0	
89	290.3813	40	554	0.2	
90	291.3147	1000	86	5.0	
91	292.1912	500	177	2.5	
92	292.8198	1000	87	5.0	
93	293.3888	80	488	0.4	
94	295.5928	200	300	1.0	
95	297.365	200	301	1.0	
96	297.9338	100	426	0.5	
97	298.5364	150	391	0.75	
98	301.0831	100	427	0.5	
99	301.7232	300	245	1.5	
100	302.1555	150	392	0.75	
101	302.2665	100	428	0.5	
102	302.368	200	302	1.0	
103	302.5263	80	489	0.4	
104	302.6887	300	246	1.5	
105	303.3158	50	546	0.25	
106	303.4568	80	490	0.4	
107	303.6878	40	555	0.2	
108	303.8226	100	429	0.5	
109	304.2643	40	556	0.2	
110	305.155	100	430	0.5	
111	305.2474	40	557	0.2	
112	306.2112	80	491	0.4	
113	306.2361	200	303	1.0	
114	306.4667	300	247	1.5	
115	306.6602	100	431	0.5	
116	306.8337	120	414	0.6	
117	307.6238	80	492	0.4	
118	308.934	150	393	0.75	
119	309.9098	1000	88	5.0	
120	309.9517	200	304	1.0	
121	310.8254	60	520	0.3	
122	310.9151	40	558	0.2	
123	310.9151	40	559	0.2	
124	311.5977	60	521	0.3	
125	311.9171	80	493	0.4	
126	311.9662	40	560	0.2	
127	312.2642	700	154	3.5	
128	313.1233	1500	73	7.5	
129	315.0265	40	561	0.2	
130	316.1674	300	248	1.5	
131	317.3295	3000	39	15.0	
132	318.0305	200	305	1.0	
133	318.2367	2000	48	10.0	
134	318.3108	2000	49	10.0	
135	319.753	40	562	0.2	
136	320.2831	300	249	1.5	
137	322.0737	40	563	0.2	
138	323.0022	60	522	0.3	
139	324.1837	100	432	0.5	
140	324.4193	500	178	2.5	
141	324.4193	500	179	2.5	
142	325.2048	300	250	1.5	
143	325.6102	40	564	0.2	
144	326.1937	40	565	0.2	
145	328.7143	100	433	0.5	
146	330.077	100	434	0.5	
147	330.5891	80	494	0.4	
148	331.0646	200	306	1.0	
149	331.3652	150	394	0.75	
150	332.5552	200	307	1.0	
151	332.5552	200	308	1.0	
152	332.7102	150	395	0.75	
153	333.0766	100	435	0.5	
154	333.2468	50	547	0.25	
155	335.0563	60	523	0.3	
156	335.083	50	548	0.25	
157	336.6753	400	218	2.0	
158	338.6674	40	566	0.2	
159	339.2227	50	549	0.25	
160	339.4179	300	251	1.5	
161	339.6903	60	524	0.3	
162	339.783	40	567	0.2	
163	339.8327	300	252	1.5	
164	339.8327	300	253	1.5	
165	340.2105	200	309	1.0	
166	340.3931	200	310	1.0	
167	340.5328	80	495	0.4	
168	340.7281	80	496	0.4	
169	340.8331	50	550	0.25	
170	341.1804	40	568	0.2	
171	341.8203	40	569	0.2	
172	341.91	100	436	0.5	
173	341.91	100	437	0.5	
174	342.7853	60	525	0.3	
175	343.175	40	570	0.2	
176	343.4701	200	311	1.0	
177	343.5679	40	571	0.2	
178	343.7439	150	396	0.75	
179	343.8729	80	497	0.4	
180	344.3472	200	312	1.0	
181	344.3472	200	313	1.0	
182	345.105	200	314	1.0	
183	345.6849	200	315	1.0	
184	345.7243	400	219	2.0	
185	345.7603	40	572	0.2	
186	346.6278	5000	22	25.0	
187	347.0514	150	397	0.75	
188	347.5178	80	498	0.4	
189	347.5592	1000	89	5.0	
190	348.462	60	526	0.3	
191	348.6226	1000	90	5.0	
192	349.0299	100	438	0.5	
193	349.3394	400	220	2.0	
194	349.4623	500	180	2.5	
195	349.9141	40	573	0.2	
196	350.0704	1000	91	5.0	
197	350.1241	200	316	1.0	
198	350.2704	800	133	4.0	
199	350.7187	100	439	0.5	
200	350.8271	100	440	0.5	
201	351.0912	100	441	0.5	
202	352.5828	800	134	4.0	
203	352.6178	300	254	1.5	
204	352.9829	100	442	0.5	
205	353.4878	150	398	0.75	
206	353.5506	500	181	2.5	
207	353.8119	300	255	1.5	
208	353.8678	800	135	4.0	
209	354.1772	2000	50	10.0	
210	354.9725	6000	20	30.0	
211	355.0645	4000	31	20.0	
212	355.9754	300	256	1.5	
213	356.0319	800	136	4.0	
214	356.5217	100	443	0.5	
215	356.8853	800	137	4.0	
216	357.0654	100	444	0.5	
217	357.0654	100	445	0.5	
218	357.542	100	446	0.5	
219	358.0059	1000	92	5.0	
220	358.1258	600	156	3.0	
221	358.2075	800	138	4.0	
222	358.2628	2000	51	10.0	
223	358.2628	2000	52	10.0	
224	358.7942	4000	32	20.0	
225	359.3471	200	317	1.0	
226	359.4573	300	257	1.5	
227	359.5661	1000	93	5.0	
228	360.7321	1000	94	5.0	
229	360.7625	200	318	1.0	
230	360.8271	2000	53	10.0	
231	361.8943	200	319	1.0	
232	362.7364	1000	95	5.0	
233	363.0388	200	320	1.0	
234	363.5146	3000	40	15.0	
235	363.607	10000	4	50.0	
236	363.607	10000	5	50.0	
237	363.822	1000	96	5.0	
238	363.8848	200	321	1.0	
239	363.9379	900	132	4.5	
240	364.0226	400	221	2.0	
241	364.804	1000	97	5.0	
242	365.1467	600	157	3.0	
243	365.8588	1000	98	5.0	
244	366.1452	400	222	2.0	
245	366.4916	200	322	1.0	
246	367.9146	1000	99	5.0	
247	368.0318	300	258	1.5	
248	368.4744	5000	23	25.0	
249	369.2759	300	259	1.5	
250	370.383	800	139	4.0	
251	370.4797	300	260	1.5	
252	370.6705	200	323	1.0	
253	370.7627	200	324	1.0	
254	370.8261	200	325	1.0	
255	371.2256	1000	100	5.0	
256	371.2819	300	261	1.5	
257	371.5944	500	182	2.5	
258	371.8861	10000	6	50.0	
259	372.3674	1500	74	7.5	
260	372.3674	1500	75	7.5	
261	372.4395	2000	54	10.0	
262	372.6351	5000	24	25.0	
263	372.7364	200	326	1.0	
264	372.9177	400	223	2.0	
265	373.1735	500	183	2.5	
266	373.742	300	262	1.5	
267	374.5012	400	224	2.0	
268	374.6148	1000	101	5.0	
269	374.6845	5000	25	25.0	
270	375.2134	1000	102	5.0	
271	375.2134	1000	103	5.0	
272	375.4368	4000	33	20.0	
273	375.8535	1000	104	5.0	
274	376.1807	2000	55	10.0	
275	376.8774	5000	26	25.0	
276	377.1031	3000	41	15.0	
277	377.7274	500	184	2.5	
278	377.9373	2000	56	10.0	
279	378.068	3000	42	15.0	
280	378.4057	500	185	2.5	
281	378.6064	200	327	1.0	
282	379.1282	500	186	2.5	
283	379.1734	300	263	1.5	
284	379.7435	200	328	1.0	
285	379.7767	1000	105	5.0	
286	381.4667	200	329	1.0	
287	381.6888	300	264	1.5	
288	382.4467	300	265	1.5	
289	382.8537	500	187	2.5	
290	383.0352	200	330	1.0	
291	383.2448	200	331	1.0	
292	383.2817	600	158	3.0	
293	383.7559	1500	76	7.5	
294	384.1307	800	140	4.0	
295	384.5974	800	141	4.0	
296	384.7596	500	188	2.5	
297	385.1222	300	266	1.5	
298	385.6734	500	189	2.5	
299	386.3068	200	332	1.0	
300	386.4106	400	225	2.0	
301	386.824	1000	106	5.0	
302	387.5658	200	333	1.0	
303	387.916	500	190	2.5	
304	388.0715	600	159	3.0	
305	389.2122	300	267	1.5	
306	389.322	200	334	1.0	
307	389.9827	600	160	3.0	
308	391.9375	300	268	1.5	
309	392.3663	300	269	1.5	
310	392.7573	200	335	1.0	
311	393.3705	200	336	1.0	
312	394.6571	4000	34	20.0	
313	394.6571	4000	35	20.0	
314	394.7087	2000	57	10.0	
315	395.5734	200	337	1.0	
316	397.9637	300	270	1.5	
317	398.0354	500	191	2.5	
318	398.4967	10000	7	50.0	
319	398.778	400	226	2.0	
320	399.4038	300	271	1.5	
321	399.4509	2000	58	10.0	
322	399.6974	200	338	1.0	
323	400.4689	300	272	1.5	
324	400.7136	500	192	2.5	
325	401.1996	1000	107	5.0	
326	401.6683	400	227	2.0	
327	401.7223	600	161	3.0	
328	402.0755	2000	59	10.0	
329	403.1626	20000	1	100.0	
330	403.9246	1000	108	5.0	
331	404.1781	200	339	1.0	
332	404.9108	10000	8	50.0	
333	405.1949	500	193	2.5	
334	405.3177	200	340	1.0	
335	405.6082	200	341	1.0	
336	408.3537	400	228	2.0	
337	408.8707	10000	9	50.0	
338	409.3694	200	342	1.0	
339	409.5668	15000	3	75.0	
340	411.0221	1000	109	5.0	
341	411.5077	10000	10	50.0	
342	411.9274	600	162	3.0	
343	411.9274	600	163	3.0	
344	412.4217	8000	18	40.0	
345	412.8268	1000	110	5.0	
346	413.4813	300	273	1.5	
347	413.9116	300	274	1.5	
348	413.9116	300	275	1.5	
349	413.9849	800	142	4.0	
350	414.1267	400	229	2.0	
351	414.495	6000	21	30.0	
352	414.508	3000	43	15.0	
353	414.7615	200	343	1.0	
354	416.5609	10000	11	50.0	
355	416.7424	500	194	2.5	
356	416.968	1000	111	5.0	
357	417.0274	4000	36	20.0	
358	417.2532	5000	27	25.0	
359	417.6276	1000	112	5.0	
360	418.6506	800	143	4.0	
361	421.8609	300	276	1.5	
362	421.8609	300	277	1.5	
363	423.8191	5000	28	25.0	
364	426.227	10000	12	50.0	
365	426.2687	1000	113	5.0	
366	427.8895	800	144	4.0	
367	429.7058	10000	13	50.0	
368	433.6855	400	230	2.0	
369	435.8491	400	231	2.0	
370	435.9257	200	344	1.0	
371	442.9592	1000	114	5.0	
372	448.1533	1000	115	5.0	
373	448.7061	3000	44	15.0	
374	449.5027	400	232	2.0	
375	451.5978	1000	116	5.0	
376	452.2841	10000	14	50.0	
377	453.953	2000	60	10.0	
378	454.209	400	233	2.0	
379	455.2204	400	234	2.0	
380	455.2854	800	145	4.0	
381	455.7046	1000	117	5.0	
382	456.4539	2000	61	10.0	
383	457.8447	1000	118	5.0	
384	459.3346	1000	119	5.0	
385	460.9159	300	278	1.5	
386	461.6857	1000	120	5.0	
387	462.2691	200	345	1.0	
388	462.4961	300	279	1.5	
389	463.0572	1000	121	5.0	
390	463.3152	200	346	1.0	
391	463.75	3000	45	15.0	
392	464.328	500	195	2.5	
393	464.8332	2000	62	10.0	
394	466.0212	2000	63	10.0	
395	466.0212	2000	64	10.0	
396	466.9305	2000	65	10.0	
397	467.217	400	235	2.0	
398	467.8903	200	347	1.0	
399	468.9359	400	236	2.0	
400	468.9359	400	237	2.0	
401	469.4282	300	280	1.5	
402	470.6918	1000	122	5.0	
403	471.4222	200	348	1.0	
404	471.7766	2000	66	10.0	
405	471.9018	500	196	2.5	
406	471.9281	4000	37	20.0	
407	473.6515	200	349	1.0	
408	474.0608	10000	15	50.0	
409	474.9614	500	197	2.5	
410	475.2717	1000	123	5.0	
411	476.2362	200	350	1.0	
412	477.1543	4000	38	20.0	
413	477.389	200	351	1.0	
414	478.3925	200	352	1.0	
415	478.5597	500	198	2.5	
416	479.0482	200	353	1.0	
417	479.1623	250	294	1.25	
418	479.9978	300	281	1.5	
419	480.5688	100	447	0.5	
420	480.9416	100	448	0.5	
421	481.6794	500	199	2.5	
422	482.0739	10000	16	50.0	
423	483.1347	300	282	1.5	
424	483.4367	1000	124	5.0	
425	483.5394	1000	125	5.0	
426	484.1364	100	449	0.5	
427	485.3588	20000	2	100.0	
428	485.7211	100	450	0.5	
429	486.2193	100	451	0.5	
430	486.6733	10000	17	50.0	
431	487.0772	200	354	1.0	
432	488.8695	100	452	0.5	
433	489.0884	150	399	0.75	
434	489.1918	8000	19	40.0	
435	489.249	150	400	0.75	
436	490.8509	1000	126	5.0	
437	490.9566	2000	67	10.0	
438	491.302	500	200	2.5	
439	491.4699	150	401	0.75	
440	492.0668	200	355	1.0	
441	492.3601	300	283	1.5	
442	494.8064	400	238	2.0	
443	497.634	5000	29	25.0	
444	499.4997	400	239	2.0	
445	500.2674	200	356	1.0	
446	500.5737	100	453	0.5	
447	501.4517	200	357	1.0	
448	502.6238	500	201	2.5	
449	502.6793	300	284	1.5	
450	502.6793	300	285	1.5	
451	502.7894	150	402	0.75	
452	503.2446	80	499	0.4	
453	505.5274	300	286	1.5	
454	505.8331	60	527	0.3	
455	506.0686	500	202	2.5	
456	509.0743	80	500	0.4	
457	509.628	5000	30	25.0	
458	510.324	200	358	1.0	
459	510.4321	500	203	2.5	
460	510.9809	200	359	1.0	
461	512.0605	100	454	0.5	
462	513.9262	500	204	2.5	
463	515.063	500	205	2.5	
464	516.181	2000	68	10.0	
465	516.181	2000	69	10.0	
466	517.4812	2000	70	10.0	
467	520.6561	100	455	0.5	
468	522.5554	200	360	1.0	
469	526.0217	200	361	1.0	
470	526.1444	200	362	1.0	
471	527.5512	1000	127	5.0	
472	528.5067	800	146	4.0	
473	530.5307	100	456	0.5	
474	531.4964	400	240	2.0	
475	532.0198	600	164	3.0	
476	533.479	200	363	1.0	
477	535.348	500	206	2.5	
478	535.6634	200	364	1.0	
479	535.8646	300	287	1.5	
480	535.8646	300	288	1.5	
481	536.0142	200	365	1.0	
482	537.5201	500	207	2.5	
483	542.3048	150	403	0.75	
484	544.7402	200	366	1.0	
485	545.19	500	208	2.5	
486	545.19	500	209	2.5	
487	545.5952	100	457	0.5	
488	547.1962	300	289	1.5	
489	547.1962	300	290	1.5	
490	548.3012	70	511	0.35	
491	548.5373	60	528	0.3	
492	550.689	80	501	0.4	
493	552.4107	150	404	0.75	
494	552.8233	100	458	0.5	
495	554.1939	200	367	1.0	
496	554.3627	80	502	0.4	
497	555.0528	100	459	0.5	
498	558.9019	3000	46	15.0	
499	560.2229	200	368	1.0	
500	562.045	2000	71	10.0	
501	562.9937	300	291	1.5	
502	564.2132	1500	77	7.5	
503	564.4944	800	147	4.0	
504	565.6005	100	460	0.5	
505	567.2153	60	529	0.3	
506	568.7301	200	369	1.0	
507	568.9046	200	370	1.0	
508	572.5314	700	155	3.5	
509	577.1468	500	210	2.5	
510	579.4646	100	461	0.5	
511	579.985	80	503	0.4	
512	581.4241	100	462	0.5	
513	583.1477	200	371	1.0	
514	583.6329	150	405	0.75	
515	592.3357	150	406	0.75	
516	592.4468	1000	128	5.0	
517	592.6286	200	372	1.0	
518	593.1929	600	165	3.0	
519	603.2355	60	530	0.3	
520	604.7992	60	531	0.3	
521	606.509	200	373	1.0	
522	608.5229	800	148	4.0	
523	609.9387	300	292	1.5	
524	610.2961	500	211	2.5	
525	612.0684	1000	129	5.0	
526	613.0805	1000	130	5.0	
527	613.223	150	407	0.75	
528	618.4698	100	463	0.5	
529	619.2665	800	149	4.0	
530	624.4178	600	166	3.0	
531	631.2179	100	464	0.5	
532	635.486	100	465	0.5	
533	635.6732	100	466	0.5	
534	638.9871	80	504	0.4	
535	640.883	100	467	0.5	
536	645.5896	1000	131	5.0	
537	646.1928	600	167	3.0	
538	647.027	100	468	0.5	
539	649.1676	200	374	1.0	
540	652.6817	200	375	1.0	
541	657.9243	150	408	0.75	
542	662.5573	500	212	2.5	
543	667.3656	300	293	1.5	
544	668.7099	100	469	0.5	
545	678.6003	80	505	0.4	
546	679.8629	70	512	0.35	
547	685.6902	60	532	0.3	
548	700.2375	150	409	0.75	
549	701.6574	100	470	0.5	
550	708.618	500	213	2.5	
551	709.312	60	533	0.3	
552	714.1286	200	376	1.0	
553	715.7626	200	377	1.0	
554	725.6089	70	513	0.35	
555	732.2382	100	471	0.5	
556	732.9148	80	506	0.4	
557	739.68	100	472	0.5	
558	740.2619	100	473	0.5	
559	740.5363	200	378	1.0	
560	742.7154	60	534	0.3	
561	743.4122	150	410	0.75	
562	745.2496	600	168	3.0	
563	746.1594	60	535	0.3	
564	753.4952	80	507	0.4	
565	754.0265	800	150	4.0	
566	754.3391	80	508	0.4	
567	757.4026	200	379	1.0	
568	757.9267	500	214	2.5	
569	762.4538	90	482	0.45	
570	768.4458	100	474	0.5	
571	768.4458	100	475	0.5	
572	769.737	500	215	2.5	
573	769.819	80	509	0.4	
574	779.3046	800	151	4.0	
575	779.828	60	536	0.3	
576	781.6741	60	537	0.3	
577	781.7728	800	152	4.0	
578	781.7728	800	153	4.0	
579	785.638	100	476	0.5	
580	786.144	200	380	1.0	
581	787.125	400	241	2.0	
582	787.476	60	538	0.3	
583	796.5452	70	514	0.35	
584	799.973	500	216	2.5	
585	812.6557	200	381	1.0	
586	817.0558	200	382	1.0	
587	820.5276	150	411	0.75	
588	820.6495	100	477	0.5	
589	821.131	150	412	0.75	
590	823.7089	500	217	2.5	
591	830.8158	200	383	1.0	
592	830.9161	200	384	1.0	
593	831.5502	60	539	0.3	
594	831.5502	60	540	0.3	
595	853.1062	100	478	0.5	
596	854.3616	100	479	0.5	
597	870.7215	100	480	0.5	
598	873.7936	100	481	0.5	
599	882.9829	200	385	1.0	
